timestamps,TP9,AF7,AF8,TP10,Right AUX
1741704880.119,668.945,-19.043,-23.926,999.512,0.000
1741704880.123,999.512,-6.348,-37.598,806.152,0.000
1741704880.127,-273.926,-43.457,-40.527,-806.641,0.000
1741704880.131,-1000.000,-59.082,-34.668,-763.184,0.000
1741704880.134,453.613,-13.672,-28.809,812.988,0.000
1741704880.138,999.512,11.230,-34.180,999.512,0.000
1741704880.142,4.395,-55.176,-57.617,-284.668,0.000
1741704880.146,-1000.000,-98.145,-59.082,-1000.000,0.000
1741704880.150,-244.141,-44.922,-36.133,-56.152,0.000
1741704880.154,999.512,-12.207,-37.598,999.512,0.000
1741704880.158,240.723,-51.758,-56.152,83.984,0.000
1741704880.162,-1000.000,-86.426,-56.641,-1000.000,0.000
1741704880.166,-556.152,-59.082,-42.480,-339.355,0.000
1741704880.170,999.512,-10.254,-38.574,999.512,0.000
1741704880.174,494.629,-25.391,-52.246,289.062,0.000
1741704880.178,-1000.000,-83.984,-54.199,-1000.000,0.000
1741704880.182,-600.098,-54.688,-34.668,-418.457,0.000
1741704880.185,903.320,11.719,-25.879,999.512,0.000
1741704880.189,999.512,-3.906,-30.762,758.301,0.000
1741704880.193,-242.188,-67.383,-37.598,-667.969,0.000
1741704880.197,-1000.000,-87.402,-30.762,-1000.000,0.000
1741704880.201,-186.523,-53.223,-28.809,128.418,0.000
1741704880.205,999.512,-20.020,-42.480,999.512,0.000
1741704880.209,128.418,-47.852,-49.316,-220.215,0.000
1741704880.213,-1000.000,-79.102,-36.133,-1000.000,0.000
1741704880.217,-248.535,-37.598,-23.926,-104.492,0.000
1741704880.221,999.512,5.371,-24.902,999.512,0.000
1741704880.225,227.539,-34.668,-31.738,128.906,0.000
1741704880.228,-1000.000,-73.242,-32.715,-1000.000,0.000
1741704880.232,-271.484,-20.020,-17.578,-231.445,0.000
1741704880.236,999.512,25.391,-20.020,999.512,0.000
1741704880.240,431.641,-19.531,-35.156,288.574,0.000
1741704880.244,-1000.000,-72.754,-42.480,-1000.000,0.000
1741704880.248,-955.078,-63.477,-43.945,-685.547,0.000
1741704880.252,481.934,-6.348,-33.203,862.305,0.000
1741704880.256,999.512,4.883,-38.086,854.004,0.000
1741704880.260,-232.422,-49.316,-48.340,-680.176,0.000
1741704880.264,-1000.000,-70.312,-38.086,-1000.000,0.000
1741704880.268,-1.465,-26.855,-29.297,339.355,0.000
1741704880.272,999.512,-0.488,-36.133,999.512,0.000
1741704880.275,114.746,-44.922,-46.387,-205.078,0.000
1741704880.279,-1000.000,-63.965,-48.340,-1000.000,0.000
1741704880.283,-229.980,-22.949,-37.109,6.836,0.000
1741704880.287,999.512,-8.789,-40.527,999.512,0.000
1741704880.291,240.723,-52.246,-57.617,173.828,0.000
1741704880.295,-1000.000,-78.613,-59.082,-1000.000,0.000
1741704880.299,-446.777,-41.992,-44.922,-302.246,0.000
1741704880.303,999.512,-3.418,-38.574,999.512,0.000
1741704880.307,749.023,-18.066,-52.734,487.793,0.000
1741704880.311,-688.965,-69.824,-58.594,-966.309,0.000
1741704880.315,-1000.000,-79.590,-44.434,-1000.000,0.000
1741704880.318,-9.277,-38.086,-32.715,414.551,0.000
1741704880.322,999.512,-10.742,-34.668,989.746,0.000
1741704880.326,-165.527,-42.480,-46.875,-624.023,0.000
1741704880.330,-1000.000,-57.129,-44.922,-1000.000,0.000
1741704880.334,172.363,-20.996,-43.457,533.691,0.000
1741704880.338,999.512,-15.137,-48.828,999.512,0.000
1741704880.342,117.676,-55.176,-52.734,-161.621,0.000
1741704880.346,-1000.000,-72.266,-50.781,-1000.000,0.000
1741704880.349,-268.066,-28.809,-41.992,-184.570,0.000
1741704880.354,999.512,19.043,-33.691,999.512,0.000
1741704880.358,451.660,-13.672,-46.875,267.578,0.000
1741704880.361,-1000.000,-74.219,-52.734,-1000.000,0.000
1741704880.365,-464.844,-47.363,-33.203,-311.035,0.000
1741704880.369,999.512,-2.930,-28.320,999.512,0.000
1741704880.373,843.750,-15.625,-39.062,575.684,0.000
1741704880.377,-563.965,-62.988,-50.781,-904.785,0.000
1741704880.381,-1000.000,-79.102,-48.340,-1000.000,0.000
1741704880.385,5.371,-36.621,-40.527,399.414,0.000
1741704880.389,999.512,-14.648,-45.410,999.512,0.000
1741704880.392,135.742,-46.875,-53.223,-218.262,0.000
1741704880.396,-1000.000,-80.566,-48.828,-1000.000,0.000
1741704880.401,-251.953,-45.898,-31.738,-50.293,0.000
1741704880.404,999.512,-4.395,-24.902,999.512,0.000
1741704880.408,217.773,-41.016,-32.227,-2.441,0.000
1741704880.412,-1000.000,-75.195,-31.738,-1000.000,0.000
1741704880.416,-336.914,-43.945,-22.949,-230.469,0.000
1741704880.420,999.512,5.859,-26.367,999.512,0.000
1741704880.424,426.758,-14.648,-40.039,260.254,0.000
1741704880.428,-1000.000,-62.988,-39.062,-1000.000,0.000
1741704880.432,-578.613,-45.410,-35.645,-391.602,0.000
1741704880.435,956.055,-3.418,-41.504,999.512,0.000
1741704880.439,967.773,-10.742,-53.711,677.734,0.000
1741704880.443,-436.035,-61.035,-57.617,-846.191,0.000
1741704880.447,-1000.000,-71.777,-41.504,-996.094,0.000
1741704880.451,69.336,-31.738,-28.809,470.215,0.000
1741704880.455,999.512,-6.348,-33.691,999.512,0.000
1741704880.459,105.469,-45.410,-39.551,-217.285,0.000
1741704880.463,-1000.000,-88.867,-41.016,-1000.000,0.000
1741704880.467,-247.070,-32.227,-24.414,-60.547,0.000
1741704880.471,999.512,24.414,-22.949,999.512,0.000
1741704880.474,245.117,-40.527,-44.434,188.965,0.000
1741704880.478,-1000.000,-91.309,-40.039,-1000.000,0.000
1741704880.482,-732.910,-59.570,-26.367,-437.500,0.000
1741704880.486,905.762,-16.602,-32.715,999.512,0.000
1741704880.490,531.250,-28.809,-45.410,324.219,0.000
1741704880.494,-1000.000,-75.195,-49.316,-1000.000,0.000
1741704880.498,-971.191,-65.918,-40.527,-663.086,0.000
1741704880.502,453.125,-20.020,-28.809,882.324,0.000
1741704880.506,999.512,-8.789,-38.086,840.332,0.000
1741704880.510,-405.762,-55.176,-49.316,-845.215,0.000
1741704880.514,-909.180,-43.457,-38.086,-668.945,0.000
1741704880.517,654.297,11.719,-25.391,901.855,0.000
1741704880.521,999.512,2.441,-30.762,999.512,0.000
1741704880.525,62.012,-43.457,-39.551,-225.586,0.000
1741704880.529,-1000.000,-64.941,-37.598,-1000.000,0.000
1741704880.533,-251.465,-21.973,-32.227,-162.109,0.000
1741704880.537,999.512,10.254,-32.227,999.512,0.000
1741704880.541,222.168,-37.598,-45.410,192.383,0.000
1741704880.545,-1000.000,-80.078,-45.410,-1000.000,0.000
1741704880.549,-867.676,-50.781,-28.320,-550.293,0.000
1741704880.553,696.289,-7.324,-26.855,999.512,0.000
1741704880.557,785.645,0.977,-32.715,461.426,0.000
1741704880.561,-877.441,-29.297,-29.297,-1000.000,0.000
1741704880.564,-1000.000,-37.598,-23.926,-698.242,0.000
1741704880.568,447.754,-7.324,-20.020,838.867,0.000
1741704880.572,999.512,3.906,-23.438,941.406,0.000
1741704880.576,-135.742,-38.574,-36.133,-559.082,0.000
1741704880.580,-1000.000,-54.688,-34.180,-1000.000,0.000
1741704880.584,-28.809,-12.695,-26.367,299.316,0.000
1741704880.588,999.512,2.930,-36.621,999.512,0.000
1741704880.592,203.125,-36.133,-47.852,15.625,0.000
1741704880.596,-1000.000,-71.777,-42.480,-1000.000,0.000
1741704880.600,-310.059,-39.551,-26.367,-222.656,0.000
1741704880.604,999.512,5.371,-29.297,999.512,0.000
1741704880.608,320.312,-24.414,-41.504,227.051,0.000
1741704880.611,-1000.000,-74.219,-45.410,-1000.000,0.000
1741704880.615,-752.930,-66.406,-38.574,-478.516,0.000
1741704880.619,897.949,-17.578,-37.109,999.512,0.000
1741704880.623,611.816,-29.297,-46.875,389.160,0.000
1741704880.627,-947.754,-80.566,-41.016,-1000.000,0.000
1741704880.631,-1000.000,-79.590,-21.973,-889.160,0.000
1741704880.635,152.832,-16.113,-18.066,530.762,0.000
1741704880.639,999.512,15.137,-32.227,999.512,0.000
1741704880.643,25.391,-37.598,-38.086,-322.754,0.000
1741704880.647,-1000.000,-66.895,-34.668,-1000.000,0.000
1741704880.651,-48.828,-28.809,-23.438,270.508,0.000
1741704880.654,999.512,3.418,-25.391,999.512,0.000
1741704880.658,213.379,-26.367,-43.457,115.723,0.000
1741704880.662,-1000.000,-80.566,-39.062,-1000.000,0.000
1741704880.666,-512.207,-65.918,-27.344,-323.730,0.000
1741704880.670,999.512,-5.859,-34.668,999.512,0.000
1741704880.674,287.109,-31.738,-53.223,227.539,0.000
1741704880.678,-1000.000,-80.566,-56.152,-1000.000,0.000
1741704880.682,-782.715,-62.988,-38.574,-539.062,0.000
1741704880.686,721.680,-13.184,-22.949,999.512,0.000
1741704880.690,990.234,-5.859,-34.180,650.879,0.000
1741704880.694,-541.992,-46.875,-49.316,-949.219,0.000
1741704880.697,-1000.000,-56.641,-43.457,-878.906,0.000
1741704880.701,259.277,-12.695,-28.809,669.922,0.000
1741704880.705,999.512,1.465,-34.668,999.512,0.000
1741704880.709,-53.223,-52.734,-52.246,-432.617,0.000
1741704880.713,-1000.000,-79.102,-48.828,-1000.000,0.000
1741704880.717,-179.688,-28.809,-35.156,73.730,0.000
1741704880.721,999.512,1.953,-44.434,999.512,0.000
1741704880.725,224.609,-51.270,-55.176,116.699,0.000
1741704880.729,-1000.000,-85.938,-45.410,-1000.000,0.000
1741704880.733,-309.570,-46.387,-33.691,-247.559,0.000
1741704880.737,999.512,-12.207,-32.715,999.512,0.000
1741704880.740,407.227,-41.016,-38.574,263.184,0.000
1741704880.744,-1000.000,-79.590,-41.992,-1000.000,0.000
1741704880.748,-740.234,-57.617,-31.250,-479.980,0.000
1741704880.752,907.715,2.441,-22.949,999.512,0.000
1741704880.756,717.773,-19.531,-35.645,461.914,0.000
1741704880.760,-788.574,-88.379,-38.574,-997.070,0.000
1741704880.764,-1000.000,-80.078,-31.250,-1000.000,0.000
1741704880.768,-130.371,-37.109,-22.949,175.293,0.000
1741704880.771,999.512,-5.859,-24.414,999.512,0.000
1741704880.776,218.262,-42.480,-40.039,25.879,0.000
1741704880.780,-1000.000,-81.055,-36.133,-1000.000,0.000
1741704880.783,-249.023,-35.645,-20.508,-18.555,0.000
1741704880.787,999.512,3.418,-22.949,999.512,0.000
1741704880.791,225.586,-46.387,-42.480,142.578,0.000
1741704880.795,-1000.000,-75.684,-43.457,-1000.000,0.000
1741704880.799,-285.645,-35.156,-29.785,-246.582,0.000
1741704880.803,999.512,-14.648,-27.344,999.512,0.000
1741704880.807,840.820,-22.461,-43.457,534.668,0.000
1741704880.811,-630.371,-60.547,-54.199,-1000.000,0.000
1741704880.814,-1000.000,-72.266,-38.086,-729.980,0.000
1741704880.818,507.324,-29.785,-33.691,924.316,0.000
1741704880.823,999.512,-25.391,-47.363,694.824,0.000
1741704880.826,-485.352,-63.477,-53.223,-886.719,0.000
1741704880.830,-1000.000,-61.035,-41.992,-1000.000,0.000
1741704880.834,96.680,-27.344,-31.250,477.539,0.000
1741704880.838,999.512,-22.461,-36.621,999.512,0.000
1741704880.842,2.930,-51.758,-46.387,-358.398,0.000
1741704880.846,-1000.000,-69.336,-41.992,-1000.000,0.000
1741704880.850,-217.773,-29.297,-24.414,-21.973,0.000
1741704880.853,999.512,4.395,-25.879,999.512,0.000
1741704880.857,235.840,-42.480,-38.086,174.316,0.000
1741704880.861,-1000.000,-81.543,-36.621,-1000.000,0.000
1741704880.865,-458.008,-40.527,-28.320,-317.871,0.000
1741704880.869,999.512,-0.488,-25.879,999.512,0.000
1741704880.873,898.438,-12.207,-38.574,559.570,0.000
1741704880.877,-655.273,-58.105,-41.016,-1000.000,0.000
1741704880.881,-965.820,-63.965,-30.762,-670.410,0.000
1741704880.885,605.957,-14.648,-27.344,944.336,0.000
1741704880.889,999.512,-8.789,-38.086,832.520,0.000
1741704880.893,-255.371,-53.711,-53.223,-701.660,0.000
1741704880.896,-1000.000,-74.707,-53.711,-1000.000,0.000
1741704880.900,58.594,-21.484,-33.203,399.902,0.000
1741704880.904,999.512,1.953,-38.086,999.512,0.000
1741704880.908,173.340,-46.875,-51.758,-73.730,0.000
1741704880.912,-1000.000,-80.566,-42.480,-1000.000,0.000
1741704880.916,-279.297,-47.852,-34.668,-213.379,0.000
1741704880.920,999.512,-17.090,-40.527,999.512,0.000
1741704880.924,267.578,-50.293,-46.875,217.285,0.000
1741704880.928,-1000.000,-81.055,-35.156,-1000.000,0.000
1741704880.932,-834.473,-69.336,-22.461,-550.293,0.000
1741704880.936,688.965,-14.648,-20.508,999.512,0.000
1741704880.940,954.590,-8.301,-35.645,631.348,0.000
1741704880.943,-666.992,-58.594,-45.898,-1000.000,0.000
1741704880.947,-1000.000,-62.988,-36.621,-709.473,0.000
1741704880.951,445.801,-30.273,-38.086,817.871,0.000
1741704880.955,999.512,-18.066,-47.363,999.512,0.000
1741704880.959,95.215,-58.594,-47.363,-269.531,0.000
1741704880.963,-1000.000,-81.055,-33.691,-1000.000,0.000
1741704880.967,-250.000,-40.527,-23.926,-0.488,0.000
1741704880.971,999.512,-14.648,-38.086,999.512,0.000
1741704880.975,226.562,-62.988,-56.152,60.059,0.000
1741704880.979,-1000.000,-88.379,-40.527,-1000.000,0.000
1741704880.983,-266.113,-33.203,-26.367,-202.148,0.000
1741704880.987,999.512,-12.695,-33.691,999.512,0.000
1741704880.990,302.246,-57.129,-43.457,223.633,0.000
1741704880.994,-1000.000,-85.449,-45.898,-1000.000,0.000
1741704880.998,-832.520,-62.500,-39.062,-554.199,0.000
1741704881.002,734.375,-25.879,-35.156,999.512,0.000
1741704881.006,862.305,-35.645,-33.203,555.664,0.000
1741704881.010,-645.020,-83.984,-38.086,-943.359,0.000
1741704881.014,-1000.000,-89.355,-36.621,-1000.000,0.000
1741704881.018,-62.500,-41.992,-24.902,315.430,0.000
1741704881.022,999.512,-14.648,-33.691,944.824,0.000
1741704881.026,-179.688,-57.129,-52.246,-611.328,0.000
1741704881.030,-1000.000,-67.383,-42.480,-1000.000,0.000
1741704881.033,-58.105,-8.301,-24.414,205.566,0.000
1741704881.037,999.512,15.625,-36.621,999.512,0.000
1741704881.041,217.285,-50.293,-59.082,109.375,0.000
1741704881.045,-1000.000,-99.609,-48.340,-1000.000,0.000
1741704881.049,-406.250,-52.246,-33.691,-281.738,0.000
1741704881.053,999.512,-6.836,-32.227,999.512,0.000
1741704881.057,836.914,-20.020,-37.598,485.352,0.000
1741704881.061,-809.570,-56.152,-45.898,-1000.000,0.000
1741704881.065,-656.250,-43.457,-41.504,-449.707,0.000
1741704881.069,978.027,1.953,-29.297,999.512,0.000
1741704881.073,967.285,-17.578,-39.551,650.391,0.000
1741704881.076,-413.086,-52.734,-49.805,-827.637,0.000
1741704881.080,-1000.000,-57.129,-37.109,-1000.000,0.000
1741704881.084,-11.719,-26.855,-30.762,337.402,0.000
1741704881.088,999.512,-10.254,-39.062,999.512,0.000
1741704881.092,16.113,-48.828,-51.270,-303.223,0.000
1741704881.096,-1000.000,-68.848,-47.363,-1000.000,0.000
1741704881.100,-243.652,-28.320,-26.855,-96.680,0.000
1741704881.104,999.512,1.465,-28.809,999.512,0.000
1741704881.108,295.410,-38.574,-45.898,214.355,0.000
1741704881.112,-1000.000,-77.637,-49.316,-1000.000,0.000
1741704881.116,-701.660,-55.176,-47.852,-453.125,0.000
1741704881.119,751.465,-15.137,-48.340,999.512,0.000
1741704881.123,999.512,3.906,-46.387,842.285,0.000
1741704881.127,-215.332,-38.574,-49.805,-689.453,0.000
1741704881.131,-1000.000,-78.125,-39.062,-956.543,0.000
1741704881.135,188.965,-38.574,-31.250,670.410,0.000
1741704881.139,999.512,-11.230,-41.992,903.320,0.000
1741704881.143,-201.172,-52.246,-50.293,-610.352,0.000
1741704881.147,-1000.000,-83.984,-46.875,-1000.000,0.000
1741704881.151,-162.598,-32.227,-33.691,102.539,0.000
1741704881.155,999.512,2.441,-40.527,999.512,0.000
1741704881.159,200.195,-45.410,-48.340,-64.453,0.000
1741704881.162,-1000.000,-69.336,-33.691,-1000.000,0.000
1741704881.166,-266.113,-16.113,-23.926,-111.328,0.000
1741704881.170,999.512,23.438,-25.879,999.512,0.000
1741704881.174,360.352,-20.020,-38.574,233.887,0.000
1741704881.178,-1000.000,-80.078,-47.852,-1000.000,0.000
1741704881.182,-642.578,-59.082,-38.086,-406.738,0.000
1741704881.186,999.512,-7.324,-29.297,999.512,0.000
1741704881.190,661.133,-19.043,-40.527,431.152,0.000
1741704881.193,-876.953,-57.617,-43.945,-1000.000,0.000
1741704881.198,-1000.000,-60.547,-39.062,-895.020,0.000
1741704881.202,180.664,-22.461,-36.133,587.402,0.000
1741704881.205,999.512,11.719,-40.039,999.512,0.000
1741704881.209,-86.426,-34.180,-51.270,-425.781,0.000
1741704881.213,-1000.000,-74.707,-41.016,-1000.000,0.000
1741704881.217,-217.773,-14.648,-20.996,-8.301,0.000
1741704881.221,999.512,31.738,-18.066,999.512,0.000
1741704881.225,322.754,-12.207,-25.879,201.172,0.000
1741704881.229,-1000.000,-66.406,-30.762,-1000.000,0.000
1741704881.233,-510.742,-50.781,-23.926,-312.012,0.000
1741704881.236,999.512,2.930,-25.391,999.512,0.000
1741704881.240,452.637,-21.973,-46.875,271.484,0.000
1741704881.244,-1000.000,-70.312,-46.875,-1000.000,0.000
1741704881.248,-653.320,-55.176,-32.715,-425.781,0.000
1741704881.252,849.121,-14.160,-28.809,999.512,0.000
1741704881.256,999.512,-6.348,-41.504,782.227,0.000
1741704881.260,-389.160,-60.059,-49.316,-830.566,0.000
1741704881.264,-1000.000,-65.430,-31.738,-726.074,0.000
1741704881.268,492.188,-1.465,-22.461,840.332,0.000
1741704881.272,999.512,-0.977,-33.691,999.512,0.000
1741704881.275,64.941,-60.059,-42.480,-225.586,0.000
1741704881.279,-1000.000,-86.914,-34.180,-1000.000,0.000
1741704881.283,-252.441,-40.527,-26.855,-103.027,0.000
1741704881.287,999.512,-14.648,-35.156,999.512,0.000
1741704881.291,228.027,-54.688,-45.898,96.191,0.000
1741704881.295,-1000.000,-71.289,-49.316,-1000.000,0.000
1741704881.299,-269.043,-19.531,-41.016,-175.293,0.000
1741704881.303,999.512,16.602,-37.598,999.512,0.000
1741704881.307,377.441,-34.180,-45.410,254.883,0.000
1741704881.311,-1000.000,-73.242,-45.898,-1000.000,0.000
1741704881.315,-747.070,-52.246,-40.039,-504.883,0.000
1741704881.319,757.324,-14.648,-31.250,999.512,0.000
1741704881.322,999.512,-14.648,-37.109,791.992,0.000
1741704881.326,-305.664,-73.730,-49.316,-713.379,0.000
1741704881.330,-1000.000,-88.867,-36.133,-1000.000,0.000
1741704881.334,13.184,-33.203,-18.555,393.555,0.000
1741704881.338,999.512,-18.555,-40.527,999.512,0.000
1741704881.342,-69.824,-72.754,-56.152,-390.625,0.000
1741704881.346,-1000.000,-76.172,-41.504,-1000.000,0.000
1741704881.350,-345.703,-43.945,-33.691,-209.473,0.000
1741704881.354,999.512,-18.066,-41.992,999.512,0.000
1741704881.358,473.145,-20.508,-51.270,260.254,0.000
1741704881.362,-1000.000,-59.570,-45.898,-1000.000,0.000
1741704881.366,-353.027,-40.527,-33.203,-264.160,0.000
1741704881.369,999.512,-1.953,-23.926,999.512,0.000
1741704881.373,512.695,-33.203,-35.645,333.008,0.000
1741704881.377,-994.629,-65.430,-49.316,-1000.000,0.000
1741704881.381,-968.262,-54.688,-36.621,-679.688,0.000
1741704881.385,413.086,-16.113,-33.203,777.832,0.000
1741704881.389,999.512,-1.953,-44.922,999.512,0.000
1741704881.393,116.211,-45.410,-46.387,-262.695,0.000
1741704881.397,-1000.000,-70.801,-34.180,-1000.000,0.000
1741704881.401,-135.254,-40.039,-26.367,244.629,0.000
1741704881.405,999.512,-8.789,-27.344,999.512,0.000
1741704881.409,189.453,-46.875,-37.109,-36.621,0.000
1741704881.412,-1000.000,-92.285,-41.992,-1000.000,0.000
1741704881.416,-262.695,-47.363,-26.367,-176.758,0.000
1741704881.420,999.512,2.930,-19.531,999.512,0.000
1741704881.424,254.395,-32.227,-33.203,190.430,0.000
1741704881.428,-1000.000,-80.566,-41.992,-1000.000,0.000
1741704881.432,-366.699,-42.969,-25.391,-270.508,0.000
1741704881.436,999.512,6.348,-24.414,999.512,0.000
1741704881.440,610.840,-28.809,-55.176,401.367,0.000
1741704881.444,-862.305,-80.566,-65.918,-1000.000,0.000
1741704881.448,-1000.000,-81.055,-46.387,-874.023,0.000
1741704881.452,214.844,-29.785,-30.762,649.414,0.000
1741704881.455,999.512,-11.230,-40.039,935.547,0.000
1741704881.459,-171.875,-76.172,-56.152,-516.113,0.000
1741704881.463,-1000.000,-107.422,-49.316,-1000.000,0.000
1741704881.467,-253.906,-66.895,-36.621,-170.898,0.000
1741704881.471,999.512,-22.949,-36.621,999.512,0.000
1741704881.475,235.840,-48.340,-48.828,154.785,0.000
1741704881.479,-1000.000,-84.473,-48.828,-1000.000,0.000
1741704881.483,-271.484,-37.598,-32.227,-211.426,0.000
1741704881.487,999.512,1.953,-32.715,999.512,0.000
1741704881.491,484.375,-26.855,-38.574,291.016,0.000
1741704881.495,-1000.000,-68.359,-42.480,-1000.000,0.000
1741704881.498,-765.137,-55.176,-35.156,-500.488,0.000
1741704881.502,821.289,-6.836,-28.320,999.512,0.000
1741704881.506,956.543,-14.648,-34.668,627.930,0.000
1741704881.510,-520.508,-67.871,-45.410,-921.875,0.000
1741704881.514,-1000.000,-78.613,-44.434,-963.867,0.000
1741704881.518,130.859,-28.809,-46.875,562.012,0.000
1741704881.522,999.512,-2.441,-58.105,988.770,0.000
1741704881.526,-125.977,-57.129,-56.152,-468.750,0.000
1741704881.530,-1000.000,-89.844,-43.945,-1000.000,0.000
1741704881.534,-229.980,-40.039,-31.738,-77.148,0.000
1741704881.538,999.512,3.418,-29.297,999.512,0.000
1741704881.541,253.418,-21.973,-35.645,160.645,0.000
1741704881.545,-1000.000,-62.012,-35.645,-1000.000,0.000
1741704881.549,-325.684,-31.738,-33.691,-256.348,0.000
1741704881.553,999.512,5.371,-43.457,999.512,0.000
1741704881.557,495.605,-30.273,-57.617,313.477,0.000
1741704881.561,-1000.000,-75.195,-54.199,-1000.000,0.000
1741704881.565,-932.129,-59.082,-38.574,-629.395,0.000
1741704881.569,616.211,-12.695,-33.203,969.727,0.000
1741704881.573,979.492,-17.090,-41.992,671.387,0.000
1741704881.577,-493.652,-62.500,-46.875,-848.633,0.000
1741704881.581,-1000.000,-80.078,-33.203,-1000.000,0.000
1741704881.584,-121.094,-42.969,-29.785,206.055,0.000
1741704881.588,999.512,-18.066,-48.340,999.512,0.000
1741704881.592,166.504,-34.180,-49.316,-159.180,0.000
1741704881.596,-1000.000,-62.988,-45.898,-1000.000,0.000
1741704881.600,-262.207,-42.969,-33.203,-193.359,0.000
1741704881.604,999.512,6.836,-24.414,999.512,0.000
1741704881.608,335.449,-23.926,-43.457,211.914,0.000
1741704881.612,-1000.000,-76.172,-44.922,-1000.000,0.000
1741704881.615,-307.617,-47.363,-28.320,-252.930,0.000
1741704881.620,999.512,-0.488,-23.926,999.512,0.000
1741704881.623,852.051,-16.602,-40.039,558.594,0.000
1741704881.627,-547.852,-64.941,-50.781,-960.449,0.000
1741704881.631,-1000.000,-78.125,-41.992,-896.973,0.000
1741704881.635,305.176,-33.203,-38.086,762.207,0.000
1741704881.639,969.727,-13.184,-41.992,651.855,0.000
1741704881.643,-541.992,-66.895,-45.898,-881.348,0.000
1741704881.647,-1000.000,-92.285,-44.434,-1000.000,0.000
1741704881.651,-169.434,-32.227,-33.203,65.918,0.000
1741704881.654,999.512,6.348,-27.832,999.512,0.000
1741704881.658,218.262,-41.016,-37.598,9.766,0.000
1741704881.662,-1000.000,-75.195,-38.574,-1000.000,0.000
1741704881.667,-262.207,-34.180,-28.809,-153.320,0.000
1741704881.670,999.512,1.953,-33.203,999.512,0.000
1741704881.674,255.371,-42.480,-46.387,202.148,0.000
1741704881.678,-1000.000,-85.938,-44.922,-1000.000,0.000
1741704881.682,-558.105,-57.129,-35.645,-373.535,0.000
1741704881.686,966.309,5.371,-29.297,999.512,0.000
1741704881.690,907.715,2.930,-35.645,571.289,0.000
1741704881.694,-625.000,-60.547,-46.387,-1000.000,0.000
1741704881.698,-1000.000,-72.266,-35.645,-765.137,0.000
1741704881.701,423.340,-22.461,-22.461,827.148,0.000
1741704881.705,999.512,-0.488,-37.109,915.527,0.000
1741704881.709,-175.781,-44.922,-46.387,-588.867,0.000
1741704881.713,-1000.000,-70.801,-37.598,-1000.000,0.000
1741704881.717,-91.309,-23.438,-30.762,256.836,0.000
1741704881.721,999.512,5.371,-36.133,999.512,0.000
1741704881.725,171.387,-49.805,-44.922,-103.027,0.000
1741704881.729,-1000.000,-91.797,-44.922,-1000.000,0.000
1741704881.733,-270.508,-41.992,-33.203,-188.477,0.000
1741704881.737,999.512,-8.789,-36.621,999.512,0.000
1741704881.741,238.770,-57.129,-49.805,183.594,0.000
1741704881.744,-1000.000,-81.543,-42.969,-1000.000,0.000
1741704881.748,-617.676,-54.688,-31.738,-385.254,0.000
1741704881.752,999.512,-21.973,-38.574,999.512,0.000
1741704881.756,584.473,-41.992,-47.852,357.910,0.000
1741704881.760,-893.066,-88.379,-51.270,-1000.000,0.000
1741704881.764,-1000.000,-81.543,-47.852,-1000.000,0.000
1741704881.768,-163.086,-32.715,-38.086,145.996,0.000
1741704881.772,999.512,4.883,-43.457,999.512,0.000
1741704881.776,170.898,-19.531,-53.223,-193.359,0.000
1741704881.780,-1000.000,-34.668,-47.852,-1000.000,0.000
1741704881.784,102.051,11.230,-30.762,429.199,0.000
1741704881.788,999.512,14.160,-28.809,999.512,0.000
1741704881.791,189.941,-44.922,-40.039,98.633,0.000
1741704881.795,-1000.000,-78.125,-45.410,-1000.000,0.000
1741704881.799,-376.953,-44.922,-41.504,-258.789,0.000
1741704881.803,999.512,0.977,-40.527,999.512,0.000
1741704881.807,334.961,-25.879,-57.129,230.469,0.000
1741704881.811,-1000.000,-73.242,-61.035,-1000.000,0.000
1741704881.815,-684.570,-43.457,-41.992,-450.684,0.000
1741704881.819,955.078,8.789,-36.621,999.512,0.000
1741704881.823,661.133,-20.996,-49.805,406.250,0.000
1741704881.827,-833.984,-62.988,-54.688,-1000.000,0.000
1741704881.831,-1000.000,-53.223,-41.504,-1000.000,0.000
1741704881.834,-119.141,-22.461,-30.762,225.098,0.000
1741704881.838,999.512,-6.348,-38.574,999.512,0.000
1741704881.842,-54.199,-44.922,-44.922,-434.082,0.000
1741704881.846,-1000.000,-66.895,-40.039,-1000.000,0.000
1741704881.850,-230.957,-24.414,-29.785,-106.445,0.000
1741704881.854,999.512,8.789,-26.855,999.512,0.000
1741704881.858,258.301,-31.250,-36.133,197.754,0.000
1741704881.862,-1000.000,-71.777,-42.969,-1000.000,0.000
1741704881.866,-276.855,-24.414,-29.297,-231.445,0.000
1741704881.870,999.512,23.926,-19.531,999.512,0.000
1741704881.874,492.188,-20.996,-31.738,302.734,0.000
1741704881.877,-1000.000,-72.754,-36.133,-1000.000,0.000
1741704881.881,-654.785,-51.270,-23.438,-435.059,0.000
1741704881.885,900.879,-8.301,-21.973,999.512,0.000
1741704881.889,999.512,-17.090,-39.551,702.148,0.000
1741704881.893,-361.328,-71.289,-47.852,-752.441,0.000
1741704881.897,-1000.000,-93.750,-41.504,-1000.000,0.000
1741704881.901,-135.742,-43.945,-26.367,186.035,0.000
1741704881.905,999.512,-0.488,-29.297,999.512,0.000
1741704881.909,180.176,-44.922,-53.223,-82.031,0.000
1741704881.913,-1000.000,-88.379,-54.199,-1000.000,0.000
1741704881.917,-262.207,-37.598,-37.598,-182.617,0.000
1741704881.920,999.512,13.184,-39.062,999.512,0.000
1741704881.924,320.801,-28.809,-57.129,216.309,0.000
1741704881.928,-1000.000,-80.566,-56.152,-1000.000,0.000
1741704881.932,-598.633,-58.105,-35.156,-372.559,0.000
1741704881.936,999.512,-10.254,-30.762,999.512,0.000
1741704881.940,600.098,-16.602,-40.039,357.910,0.000
1741704881.944,-1000.000,-54.688,-43.945,-1000.000,0.000
1741704881.948,-790.039,-39.551,-45.410,-504.883,0.000
1741704881.952,830.566,4.883,-39.551,999.512,0.000
1741704881.956,889.160,-8.789,-35.156,589.844,0.000
1741704881.959,-596.680,-57.617,-41.992,-910.156,0.000
1741704881.963,-1000.000,-59.082,-39.551,-1000.000,0.000
1741704881.967,-26.855,-8.789,-28.809,281.738,0.000
1741704881.971,999.512,6.836,-28.320,999.512,0.000
1741704881.975,149.902,-47.363,-41.504,-140.625,0.000
1741704881.979,-1000.000,-74.707,-42.969,-1000.000,0.000
1741704881.983,-262.695,-32.715,-31.250,-127.441,0.000
1741704881.987,999.512,13.672,-32.227,999.512,0.000
1741704881.991,328.613,-23.438,-48.828,203.613,0.000
1741704881.995,-1000.000,-74.219,-52.246,-1000.000,0.000
1741704881.999,-517.090,-45.898,-36.133,-336.426,0.000
1741704882.002,999.512,18.066,-20.996,999.512,0.000
1741704882.006,762.695,1.465,-38.574,501.953,0.000
1741704882.010,-842.773,-63.477,-49.316,-1000.000,0.000
1741704882.014,-923.340,-49.316,-28.320,-643.555,0.000
1741704882.018,610.352,-2.441,-23.438,937.988,0.000
1741704882.022,999.512,-9.766,-30.762,886.230,0.000
1741704882.026,-218.750,-48.828,-37.598,-640.625,0.000
1741704882.030,-1000.000,-59.082,-36.621,-1000.000,0.000
1741704882.033,88.867,-13.672,-25.879,440.918,0.000
1741704882.037,999.512,-7.812,-25.879,999.512,0.000
1741704882.042,164.062,-59.570,-39.551,-86.426,0.000
1741704882.045,-1000.000,-82.520,-40.527,-1000.000,0.000
1741704882.049,-426.270,-37.109,-26.855,-257.324,0.000
1741704882.053,999.512,-0.488,-25.391,999.512,0.000
1741704882.057,458.008,-31.250,-36.133,275.391,0.000
1741704882.061,-1000.000,-60.059,-42.480,-1000.000,0.000
1741704882.065,-607.910,-33.691,-25.391,-389.648,0.000
1741704882.069,999.512,2.930,-17.090,999.512,0.000
1741704882.073,607.422,-21.484,-32.227,392.578,0.000
1741704882.077,-895.508,-68.848,-39.062,-1000.000,0.000
1741704882.080,-1000.000,-61.035,-36.133,-941.406,0.000
1741704882.084,89.844,-21.484,-28.809,497.070,0.000
1741704882.089,999.512,-10.254,-39.062,999.512,0.000
1741704882.092,-6.348,-42.480,-51.270,-371.582,0.000
1741704882.096,-1000.000,-52.246,-40.527,-1000.000,0.000
1741704882.100,-251.465,-17.090,-19.531,-127.930,0.000
1741704882.104,999.512,9.766,-20.996,999.512,0.000
1741704882.108,498.047,-5.859,-34.668,305.176,0.000
1741704882.112,-1000.000,-57.617,-36.621,-1000.000,0.000
1741704882.116,-853.027,-67.871,-32.227,-506.348,0.000
1741704882.120,839.844,-8.301,-32.715,999.512,0.000
1741704882.123,414.062,-26.367,-45.898,270.020,0.000
1741704882.127,-1000.000,-82.520,-61.523,-1000.000,0.000
1741704882.131,-719.727,-52.734,-48.828,-493.164,0.000
1741704882.136,837.891,4.883,-33.203,999.512,0.000
1741704882.139,906.250,-6.836,-48.828,588.379,0.000
1741704882.143,-572.754,-66.406,-58.594,-920.410,0.000
1741704882.147,-1000.000,-73.730,-48.340,-1000.000,0.000
1741704882.151,-38.574,-26.367,-38.086,260.254,0.000
1741704882.155,999.512,6.348,-40.039,999.512,0.000
1741704882.159,208.496,-23.438,-48.828,113.281,0.000
1741704882.163,-1000.000,-70.801,-45.898,-1000.000,0.000
1741704882.167,-269.043,-47.363,-35.645,-208.008,0.000
1741704882.170,999.512,-3.906,-32.227,999.512,0.000
1741704882.174,288.086,-31.738,-42.480,199.707,0.000
1741704882.178,-1000.000,-63.965,-51.758,-1000.000,0.000
1741704882.182,-314.941,-37.109,-40.527,-262.207,0.000
1741704882.186,999.512,-3.906,-35.156,999.512,0.000
1741704882.190,711.426,-15.137,-42.969,451.172,0.000
1741704882.194,-798.828,-61.523,-40.527,-1000.000,0.000
1741704882.198,-1000.000,-69.336,-30.762,-704.102,0.000
1741704882.202,387.695,-4.883,-28.320,755.859,0.000
1741704882.206,999.512,16.113,-36.621,999.512,0.000
1741704882.210,162.598,-36.621,-49.805,-96.680,0.000
1741704882.213,-1000.000,-69.336,-44.922,-1000.000,0.000
1741704882.217,-222.168,-38.086,-29.297,99.121,0.000
1741704882.221,999.512,-11.719,-42.969,999.512,0.000
1741704882.225,219.727,-47.852,-61.035,47.363,0.000
1741704882.229,-1000.000,-82.520,-46.875,-1000.000,0.000
1741704882.233,-268.066,-41.992,-33.691,-178.711,0.000
1741704882.237,999.512,-0.488,-43.945,999.512,0.000
1741704882.241,335.938,-32.227,-63.965,229.004,0.000
1741704882.245,-1000.000,-83.496,-60.547,-1000.000,0.000
1741704882.249,-643.555,-52.246,-34.668,-410.645,0.000
1741704882.253,999.512,4.883,-23.926,999.512,0.000
1741704882.256,572.266,-26.855,-41.016,365.234,0.000
1741704882.260,-921.387,-71.289,-54.199,-1000.000,0.000
1741704882.264,-1000.000,-67.871,-47.363,-994.141,0.000
1741704882.268,-19.531,-30.762,-37.598,367.676,0.000
1741704882.272,999.512,2.930,-44.434,999.512,0.000
1741704882.276,42.480,-29.297,-54.199,-314.941,0.000
1741704882.280,-1000.000,-58.594,-40.039,-1000.000,0.000
1741704882.284,-188.965,-21.973,-26.367,95.215,0.000
1741704882.288,999.512,15.625,-33.691,999.512,0.000
1741704882.292,258.301,-12.695,-48.340,168.457,0.000
1741704882.296,-1000.000,-60.059,-46.387,-1000.000,0.000
1741704882.299,-305.176,-41.504,-35.645,-232.910,0.000
1741704882.303,999.512,-12.207,-38.574,999.512,0.000
1741704882.307,328.125,-39.062,-49.316,216.309,0.000
1741704882.311,-1000.000,-71.777,-50.781,-1000.000,0.000
1741704882.315,-568.359,-47.363,-45.410,-367.676,0.000
1741704882.319,868.164,-1.465,-38.086,999.512,0.000
1741704882.323,999.512,-1.953,-40.039,875.977,0.000
1741704882.327,-199.219,-51.270,-51.270,-668.945,0.000
1741704882.331,-1000.000,-67.383,-50.293,-823.730,0.000
1741704882.335,434.570,-17.090,-33.203,854.004,0.000
1741704882.338,999.512,-14.160,-32.227,869.141,0.000
1741704882.342,-223.633,-52.734,-43.945,-570.312,0.000
1741704882.346,-1000.000,-65.918,-38.574,-1000.000,0.000
1741704882.350,-224.121,-43.457,-26.855,-166.504,0.000
1741704882.354,999.512,-9.766,-36.133,999.512,0.000
1741704882.358,234.863,-50.781,-54.199,119.141,0.000
1741704882.362,-1000.000,-93.262,-45.898,-1000.000,0.000
1741704882.366,-320.312,-42.480,-23.926,-240.234,0.000
1741704882.370,999.512,-0.488,-25.391,999.512,0.000
1741704882.374,366.699,-38.086,-39.062,255.371,0.000
1741704882.378,-1000.000,-76.172,-40.527,-1000.000,0.000
1741704882.381,-808.105,-56.152,-29.297,-514.160,0.000
1741704882.385,580.566,-12.207,-27.344,889.648,0.000
1741704882.389,999.512,15.625,-36.621,999.512,0.000
1741704882.393,125.488,-18.555,-43.945,-218.262,0.000
1741704882.397,-1000.000,-69.824,-35.645,-1000.000,0.000
1741704882.401,-36.621,-22.461,-18.066,312.988,0.000
1741704882.405,999.512,11.719,-19.531,999.512,0.000
1741704882.409,180.176,-42.480,-36.621,-44.922,0.000
1741704882.412,-1000.000,-70.801,-33.691,-1000.000,0.000
1741704882.417,-250.000,-23.926,-27.344,-43.945,0.000
1741704882.421,999.512,2.441,-36.133,999.512,0.000
1741704882.424,229.492,-48.828,-43.945,116.699,0.000
1741704882.428,-1000.000,-81.543,-48.340,-1000.000,0.000
1741704882.432,-339.844,-38.574,-33.203,-258.301,0.000
1741704882.436,999.512,13.184,-26.855,999.512,0.000
1741704882.440,957.031,-3.906,-51.758,650.391,0.000
1741704882.444,-326.660,-59.082,-62.012,-785.156,0.000
1741704882.448,-1000.000,-81.543,-44.922,-1000.000,0.000
1741704882.452,-18.066,-48.340,-37.598,414.551,0.000
1741704882.456,929.199,-29.785,-47.363,649.902,0.000
1741704882.459,-520.020,-61.035,-55.664,-904.297,0.000
1741704882.464,-1000.000,-75.684,-40.527,-1000.000,0.000
1741704882.468,-143.555,-38.574,-22.949,142.090,0.000
1741704882.471,999.512,-9.766,-26.367,999.512,0.000
1741704882.475,69.824,-53.223,-40.527,-264.160,0.000
1741704882.479,-1000.000,-73.242,-40.527,-1000.000,0.000
1741704882.483,-207.520,-15.625,-31.738,12.207,0.000
1741704882.487,999.512,15.137,-35.156,999.512,0.000
1741704882.491,226.074,-41.016,-47.852,175.293,0.000
1741704882.495,-1000.000,-74.219,-48.340,-1000.000,0.000
1741704882.499,-823.242,-59.082,-42.480,-519.043,0.000
1741704882.502,715.332,-25.391,-36.621,999.512,0.000
1741704882.506,903.320,-23.926,-40.527,562.500,0.000
1741704882.511,-742.676,-68.359,-48.828,-1000.000,0.000
1741704882.514,-1000.000,-60.059,-41.992,-716.309,0.000
1741704882.518,579.102,-12.207,-33.203,926.758,0.000
1741704882.522,999.512,-23.926,-41.992,728.516,0.000
1741704882.526,-543.457,-76.172,-50.781,-938.965,0.000
1741704882.530,-1000.000,-59.082,-39.062,-775.391,0.000
1741704882.534,396.973,-3.418,-25.879,734.375,0.000
1741704882.538,999.512,-11.230,-39.062,999.512,0.000
1741704882.542,153.320,-65.430,-54.199,-85.449,0.000
1741704882.546,-1000.000,-91.309,-41.504,-1000.000,0.000
1741704882.549,-272.949,-38.574,-25.391,-188.965,0.000
1741704882.553,999.512,-1.465,-33.203,999.512,0.000
1741704882.558,425.293,-38.574,-51.270,262.695,0.000
1741704882.561,-1000.000,-80.078,-49.805,-1000.000,0.000
1741704882.565,-665.039,-62.500,-30.273,-431.641,0.000
1741704882.569,877.441,-18.066,-22.461,999.512,0.000
1741704882.573,999.512,-15.625,-33.203,695.801,0.000
1741704882.577,-458.008,-56.641,-42.480,-896.484,0.000
1741704882.581,-1000.000,-68.848,-37.598,-824.219,0.000
1741704882.585,268.066,-32.715,-30.273,696.777,0.000
1741704882.589,999.512,-8.789,-35.645,999.512,0.000
1741704882.592,125.000,-41.016,-40.039,-210.938,0.000
1741704882.596,-1000.000,-67.383,-36.133,-1000.000,0.000
1741704882.600,-227.539,-27.344,-29.785,28.809,0.000
1741704882.604,999.512,1.953,-32.227,999.512,0.000
1741704882.608,303.223,-27.832,-35.156,187.500,0.000
1741704882.612,-1000.000,-69.824,-27.832,-1000.000,0.000
1741704882.616,-523.926,-56.641,-19.531,-322.266,0.000
1741704882.620,999.512,-12.695,-23.438,999.512,0.000
1741704882.624,543.945,-17.578,-34.668,319.336,0.000
1741704882.628,-1000.000,-48.828,-36.133,-1000.000,0.000
1741704882.632,-693.359,-41.504,-33.203,-445.312,0.000
1741704882.635,930.664,-12.695,-35.645,999.512,0.000
1741704882.639,841.309,-18.555,-45.898,536.621,0.000
1741704882.643,-603.516,-65.918,-52.246,-898.926,0.000
1741704882.647,-1000.000,-81.055,-41.016,-1000.000,0.000
1741704882.651,-141.113,-37.109,-21.973,178.223,0.000
1741704882.655,999.512,-15.137,-28.809,954.590,0.000
1741704882.659,-105.469,-56.152,-47.363,-522.949,0.000
1741704882.663,-1000.000,-68.359,-42.480,-1000.000,0.000
1741704882.667,-225.586,-24.902,-29.785,-62.012,0.000
1741704882.671,999.512,18.066,-35.156,999.512,0.000
1741704882.675,349.121,-21.484,-50.781,218.262,0.000
1741704882.678,-1000.000,-83.008,-50.293,-1000.000,0.000
1741704882.682,-632.324,-60.059,-39.062,-391.602,0.000
1741704882.686,978.516,-8.301,-33.203,999.512,0.000
1741704882.690,759.277,-22.461,-46.875,475.098,0.000
1741704882.694,-898.438,-74.219,-62.012,-1000.000,0.000
1741704882.698,-866.699,-62.012,-46.875,-582.520,0.000
1741704882.702,704.102,-14.160,-32.227,999.023,0.000
1741704882.706,999.512,-15.137,-39.062,800.781,0.000
1741704882.710,-312.988,-66.406,-51.270,-729.004,0.000
1741704882.714,-1000.000,-72.266,-45.898,-1000.000,0.000
1741704882.717,7.812,-14.648,-27.344,390.137,0.000
1741704882.721,999.512,-8.789,-38.574,999.512,0.000
1741704882.725,167.480,-57.129,-59.082,-95.703,0.000
1741704882.729,-1000.000,-79.590,-52.734,-1000.000,0.000
1741704882.733,-351.562,-54.199,-43.457,-223.145,0.000
1741704882.737,999.512,-12.695,-41.016,999.512,0.000
1741704882.741,369.141,-31.250,-44.434,227.539,0.000
1741704882.745,-1000.000,-68.848,-51.758,-1000.000,0.000
1741704882.749,-605.469,-50.293,-43.457,-384.766,0.000
1741704882.753,999.512,-9.277,-29.297,999.512,0.000
1741704882.757,658.203,-22.949,-34.668,404.297,0.000
1741704882.760,-1000.000,-76.660,-41.504,-1000.000,0.000
1741704882.764,-806.152,-58.594,-29.785,-557.129,0.000
1741704882.768,784.180,0.488,-25.391,999.512,0.000
1741704882.772,999.512,-18.066,-35.156,711.914,0.000
1741704882.776,-437.500,-72.266,-44.922,-808.594,0.000
1741704882.780,-1000.000,-78.125,-43.457,-1000.000,0.000
1741704882.784,-4.395,-26.367,-29.785,317.871,0.000
1741704882.788,999.512,-4.883,-28.809,999.512,0.000
1741704882.792,130.859,-42.480,-40.527,-174.805,0.000
1741704882.796,-1000.000,-66.406,-44.434,-1000.000,0.000
1741704882.800,-256.348,-26.367,-30.762,-162.109,0.000
1741704882.803,999.512,4.395,-21.973,999.512,0.000
1741704882.807,253.418,-47.852,-40.039,200.195,0.000
1741704882.811,-1000.000,-75.684,-39.551,-1000.000,0.000
1741704882.815,-574.707,-52.246,-27.832,-390.137,0.000
1741704882.819,937.988,-17.578,-29.785,999.512,0.000
1741704882.823,962.402,-20.996,-32.227,608.398,0.000
1741704882.827,-645.996,-69.336,-33.203,-1000.000,0.000
1741704882.831,-854.492,-61.523,-26.855,-581.543,0.000
1741704882.835,684.082,-1.465,-20.020,920.410,0.000
1741704882.839,999.512,2.441,-35.156,999.512,0.000
1741704882.843,123.047,-50.781,-48.828,-205.078,0.000
1741704882.847,-1000.000,-77.148,-34.668,-1000.000,0.000
1741704882.850,-229.004,-40.039,-22.949,72.754,0.000
1741704882.854,999.512,-10.254,-25.879,999.512,0.000
1741704882.858,228.027,-37.109,-36.621,149.414,0.000
1741704882.862,-1000.000,-71.289,-35.645,-1000.000,0.000
1741704882.866,-356.445,-47.852,-31.250,-250.488,0.000
1741704882.870,999.512,-15.625,-34.668,999.512,0.000
1741704882.874,245.605,-50.781,-39.551,209.473,0.000
1741704882.878,-1000.000,-86.914,-36.621,-1000.000,0.000
1741704882.881,-719.238,-59.082,-26.855,-476.562,0.000
1741704882.886,798.828,-15.625,-21.973,999.512,0.000
1741704882.890,958.496,-11.230,-33.691,645.020,0.000
1741704882.893,-515.625,-56.152,-48.340,-879.883,0.000
1741704882.897,-1000.000,-72.754,-37.109,-1000.000,0.000
1741704882.901,28.320,-20.020,-24.414,358.398,0.000
1741704882.905,999.512,22.949,-25.391,999.512,0.000
1741704882.909,182.617,-27.832,-32.227,-99.121,0.000
1741704882.913,-1000.000,-80.566,-32.227,-1000.000,0.000
1741704882.917,-263.184,-40.527,-25.879,-155.273,0.000
1741704882.921,999.512,-1.465,-30.762,999.512,0.000
1741704882.924,236.816,-37.109,-46.387,179.688,0.000
1741704882.928,-1000.000,-83.008,-52.734,-1000.000,0.000
1741704882.933,-607.422,-61.523,-32.227,-382.324,0.000
1741704882.936,999.512,-15.137,-30.762,999.512,0.000
1741704882.940,455.566,-35.156,-45.410,281.250,0.000
1741704882.944,-1000.000,-86.426,-50.293,-1000.000,0.000
1741704882.948,-938.965,-71.777,-39.062,-658.203,0.000
1741704882.952,397.461,-8.789,-24.414,770.508,0.000
1741704882.956,999.512,12.695,-36.133,999.512,0.000
1741704882.960,158.691,-30.273,-51.758,-209.473,0.000
1741704882.964,-1000.000,-69.336,-44.434,-1000.000,0.000
1741704882.968,-229.980,-38.574,-29.297,101.562,0.000
1741704882.971,999.512,-3.418,-30.762,999.512,0.000
1741704882.975,223.145,-35.645,-53.223,37.598,0.000
1741704882.979,-1000.000,-77.637,-61.035,-1000.000,0.000
1741704882.983,-305.664,-55.664,-45.898,-234.375,0.000
1741704882.987,999.512,-2.930,-33.691,999.512,0.000
1741704882.991,369.629,-23.438,-39.062,241.211,0.000
1741704882.995,-1000.000,-77.637,-39.062,-1000.000,0.000
1741704882.999,-441.895,-41.992,-22.949,-297.852,0.000
1741704883.003,999.512,11.230,-31.738,999.512,0.000
1741704883.007,780.273,-17.090,-45.898,482.422,0.000
1741704883.011,-780.273,-63.477,-39.551,-1000.000,0.000
1741704883.014,-977.539,-58.594,-29.297,-654.297,0.000
1741704883.018,583.496,-11.230,-22.949,957.520,0.000
1741704883.022,999.512,-5.371,-34.180,762.695,0.000
1741704883.026,-295.898,-47.852,-44.922,-690.430,0.000
1741704883.030,-1000.000,-60.547,-37.109,-1000.000,0.000
1741704883.034,-220.703,-32.227,-31.738,-31.738,0.000
1741704883.038,999.512,0.000,-32.227,999.512,0.000
1741704883.042,216.797,-32.715,-48.828,-46.387,0.000
1741704883.046,-1000.000,-60.059,-48.340,-1000.000,0.000
1741704883.050,-258.301,-9.277,-30.273,-106.934,0.000
1741704883.053,999.512,18.555,-30.273,999.512,0.000
1741704883.057,274.414,-33.203,-44.922,198.242,0.000
1741704883.061,-1000.000,-74.219,-49.805,-1000.000,0.000
1741704883.065,-389.160,-38.086,-32.715,-271.973,0.000
1741704883.069,999.512,-6.836,-26.367,999.512,0.000
1741704883.073,540.527,-31.738,-35.156,358.887,0.000
1741704883.077,-931.641,-78.613,-47.363,-1000.000,0.000
1741704883.081,-1000.000,-79.590,-46.387,-862.793,0.000
1741704883.085,182.129,-10.742,-31.738,584.961,0.000
1741704883.089,999.512,15.137,-36.133,999.512,0.000
1741704883.093,77.148,-40.527,-43.457,-298.340,0.000
1741704883.096,-1000.000,-74.707,-38.574,-1000.000,0.000
1741704883.100,-233.398,-47.363,-31.738,46.875,0.000
1741704883.104,999.512,-7.324,-28.809,999.512,0.000
1741704883.108,228.027,-46.875,-43.945,53.223,0.000
1741704883.112,-1000.000,-85.449,-49.316,-1000.000,0.000
1741704883.116,-319.824,-44.434,-39.551,-231.934,0.000
1741704883.120,999.512,-7.324,-34.668,999.512,0.000
1741704883.124,520.020,-22.949,-40.527,306.641,0.000
1741704883.128,-1000.000,-77.637,-43.457,-1000.000,0.000
1741704883.132,-706.055,-70.801,-29.785,-430.664,0.000
1741704883.135,930.664,-19.043,-22.461,999.512,0.000
1741704883.139,765.625,-30.273,-37.109,437.500,0.000
1741704883.143,-753.906,-76.172,-49.805,-1000.000,0.000
1741704883.147,-1000.000,-78.125,-36.621,-892.578,0.000
1741704883.151,252.441,-26.367,-14.160,665.039,0.000
1741704883.155,999.512,-13.672,-21.484,912.598,0.000
1741704883.159,-232.910,-70.801,-40.039,-616.211,0.000
1741704883.163,-1000.000,-80.078,-33.691,-1000.000,0.000
1741704883.167,-138.672,-27.832,-17.578,131.348,0.000
1741704883.171,999.512,-8.301,-25.391,999.512,0.000
1741704883.175,241.211,-43.457,-39.551,139.648,0.000
1741704883.179,-1000.000,-83.008,-38.574,-1000.000,0.000
1741704883.182,-367.676,-53.711,-37.598,-262.207,0.000
1741704883.186,999.512,10.254,-34.668,999.512,0.000
1741704883.190,592.285,-5.371,-35.645,372.559,0.000
1741704883.194,-988.770,-70.312,-38.086,-1000.000,0.000
1741704883.198,-872.070,-62.500,-31.250,-579.590,0.000
1741704883.202,705.078,-5.859,-29.785,999.512,0.000
1741704883.206,999.512,-13.184,-37.109,686.523,0.000
1741704883.210,-421.387,-61.035,-48.828,-796.387,0.000
1741704883.214,-1000.000,-73.242,-44.922,-1000.000,0.000
1741704883.218,-170.898,-43.457,-29.785,165.039,0.000
1741704883.222,999.512,-15.137,-37.598,999.512,0.000
1741704883.226,33.203,-52.246,-52.734,-319.824,0.000
1741704883.229,-1000.000,-90.820,-47.852,-1000.000,0.000
1741704883.233,-236.328,-40.039,-31.738,-157.715,0.000
1741704883.237,999.512,0.000,-25.879,999.512,0.000
1741704883.241,232.910,-46.387,-32.227,150.391,0.000
1741704883.245,-1000.000,-81.543,-41.992,-1000.000,0.000
1741704883.249,-325.684,-33.203,-32.715,-252.930,0.000
1741704883.253,999.512,16.602,-29.297,999.512,0.000
1741704883.257,555.664,-11.719,-43.457,354.004,0.000
1741704883.261,-1000.000,-68.848,-43.945,-1000.000,0.000
1741704883.265,-803.711,-58.105,-29.297,-553.223,0.000
1741704883.269,765.625,-1.953,-26.855,999.512,0.000
1741704883.272,999.512,-7.324,-34.180,739.258,0.000
1741704883.276,-399.902,-70.801,-34.180,-792.969,0.000
1741704883.280,-1000.000,-76.172,-29.297,-1000.000,0.000
1741704883.284,22.949,-17.090,-20.020,337.891,0.000
1741704883.288,999.512,0.000,-25.879,999.512,0.000
1741704883.292,200.195,-43.457,-41.992,-1.465,0.000
1741704883.296,-1000.000,-61.035,-37.109,-1000.000,0.000
1741704883.300,-265.137,-16.602,-27.344,-78.125,0.000
1741704883.303,999.512,10.742,-33.691,999.512,0.000
1741704883.308,422.852,-23.438,-47.363,242.188,0.000
1741704883.312,-1000.000,-70.801,-49.316,-1000.000,0.000
1741704883.315,-378.906,-40.527,-33.691,-274.414,0.000
1741704883.319,999.512,5.859,-35.645,999.512,0.000
1741704883.323,615.723,-28.320,-51.758,402.832,0.000
1741704883.327,-925.293,-76.660,-51.758,-1000.000,0.000
1741704883.331,-976.074,-66.406,-39.551,-660.156,0.000
1741704883.335,543.945,-24.902,-37.598,925.293,0.000
1741704883.339,999.512,-20.996,-55.664,799.316,0.000
1741704883.343,-314.453,-67.871,-60.547,-692.871,0.000
1741704883.346,-1000.000,-87.402,-51.270,-1000.000,0.000
1741704883.350,-164.551,-49.316,-45.898,112.793,0.000
1741704883.355,999.512,-18.555,-41.504,999.512,0.000
1741704883.358,230.957,-60.547,-45.898,52.246,0.000
1741704883.362,-1000.000,-95.215,-41.992,-1000.000,0.000
1741704883.366,-394.531,-54.688,-29.785,-256.836,0.000
1741704883.370,999.512,3.418,-30.273,999.512,0.000
1741704883.374,607.910,-7.324,-40.527,375.977,0.000
1741704883.378,-962.891,-74.219,-51.270,-1000.000,0.000
1741704883.382,-931.641,-84.473,-46.875,-608.887,0.000
1741704883.386,617.188,-35.156,-39.062,988.281,0.000
1741704883.389,999.512,-21.973,-51.758,725.098,0.000
1741704883.393,-544.434,-62.500,-52.734,-950.684,0.000
1741704883.397,-958.984,-55.176,-30.273,-670.410,0.000
1741704883.401,573.730,-12.207,-20.020,877.930,0.000
1741704883.405,999.512,-5.859,-28.320,999.512,0.000
1741704883.409,44.922,-45.898,-41.992,-295.898,0.000
1741704883.413,-1000.000,-76.660,-43.457,-1000.000,0.000
1741704883.417,-117.188,-35.645,-35.156,182.617,0.000
1741704883.421,999.512,6.836,-38.574,999.512,0.000
1741704883.425,365.234,-20.996,-48.828,211.426,0.000
1741704883.429,-1000.000,-75.684,-54.199,-1000.000,0.000
1741704883.432,-839.844,-76.172,-43.945,-495.605,0.000
1741704883.436,817.383,-23.926,-31.738,999.512,0.000
1741704883.440,648.926,-20.996,-30.762,402.832,0.000
1741704883.444,-988.770,-81.055,-30.762,-1000.000,0.000
1741704883.448,-1000.000,-83.984,-22.949,-677.734,0.000
1741704883.452,486.816,-27.832,-17.090,909.668,0.000
1741704883.456,999.512,-14.160,-33.691,753.418,0.000
1741704883.460,-395.996,-60.059,-42.969,-818.359,0.000
1741704883.464,-1000.000,-73.730,-27.832,-1000.000,0.000
1741704883.468,24.414,-17.090,-24.902,407.715,0.000
1741704883.472,999.512,2.441,-41.992,999.512,0.000
1741704883.475,135.742,-61.523,-55.664,-163.086,0.000
1741704883.479,-1000.000,-89.355,-47.363,-1000.000,0.000
1741704883.483,-247.559,-26.367,-27.832,-61.523,0.000
1741704883.487,999.512,20.020,-24.414,999.512,0.000
1741704883.491,260.254,-35.156,-41.504,193.848,0.000
1741704883.495,-1000.000,-90.332,-48.828,-1000.000,0.000
1741704883.499,-537.109,-62.988,-31.738,-331.055,0.000
1741704883.503,999.512,-15.137,-25.879,999.512,0.000
1741704883.507,464.844,-37.598,-42.480,284.668,0.000
1741704883.511,-1000.000,-76.660,-51.270,-1000.000,0.000
1741704883.514,-640.625,-45.410,-39.062,-418.945,0.000
1741704883.518,825.684,-7.324,-38.086,999.512,0.000
1741704883.522,999.512,-10.254,-47.363,937.988,0.000
1741704883.526,-77.148,-49.316,-46.875,-402.344,0.000
1741704883.530,-1000.000,-81.055,-38.574,-1000.000,0.000
1741704883.534,-218.750,-42.480,-21.973,47.852,0.000
1741704883.538,999.512,-11.719,-24.414,999.512,0.000
1741704883.542,213.867,-41.504,-37.109,-53.711,0.000
1741704883.546,-1000.000,-72.266,-35.645,-1000.000,0.000
1741704883.550,-292.969,-44.434,-27.344,-210.449,0.000
1741704883.554,999.512,-9.766,-32.227,999.512,0.000
1741704883.558,459.961,-29.785,-45.898,278.320,0.000
1741704883.561,-1000.000,-73.242,-51.270,-1000.000,0.000
1741704883.565,-496.582,-57.617,-41.992,-314.453,0.000
1741704883.569,999.512,-12.207,-28.320,999.512,0.000
1741704883.573,686.035,-25.391,-32.715,436.523,0.000
1741704883.577,-913.086,-78.613,-37.109,-1000.000,0.000
1741704883.581,-903.320,-72.754,-27.832,-600.098,0.000
1741704883.585,617.676,-17.090,-27.344,949.219,0.000
1741704883.589,999.512,-16.602,-37.598,892.578,0.000
1741704883.593,-167.969,-63.477,-41.016,-539.062,0.000
1741704883.597,-1000.000,-78.613,-30.273,-1000.000,0.000
1741704883.601,-194.824,-36.621,-24.902,72.754,0.000
1741704883.604,999.512,-14.160,-45.410,999.512,0.000
1741704883.608,227.051,-46.387,-62.012,120.117,0.000
1741704883.612,-1000.000,-81.055,-48.828,-1000.000,0.000
1741704883.616,-284.180,-45.410,-22.949,-220.215,0.000
1741704883.620,999.512,-1.465,-21.484,999.512,0.000
1741704883.624,514.648,-30.762,-36.621,310.059,0.000
1741704883.628,-1000.000,-76.172,-43.945,-1000.000,0.000
1741704883.632,-712.402,-59.082,-42.480,-448.730,0.000
1741704883.636,896.973,-6.836,-37.598,999.512,0.000
1741704883.640,914.062,-7.324,-45.410,607.910,0.000
1741704883.644,-551.758,-47.363,-54.199,-915.039,0.000
1741704883.648,-1000.000,-58.105,-40.527,-976.562,0.000
1741704883.651,25.391,-27.344,-29.785,401.367,0.000
1741704883.655,999.512,10.254,-41.504,999.512,0.000
1741704883.659,202.148,-16.113,-50.293,77.637,0.000
1741704883.663,-1000.000,-75.195,-45.410,-1000.000,0.000
1741704883.667,-258.301,-54.688,-35.156,-136.230,0.000
1741704883.671,999.512,-13.184,-41.992,999.512,0.000
1741704883.675,146.484,-51.758,-48.828,-96.680,0.000
1741704883.679,-1000.000,-90.332,-40.039,-1000.000,0.000
1741704883.683,-410.645,-47.363,-30.762,-250.000,0.000
1741704883.687,999.512,1.465,-30.273,999.512,0.000
1741704883.691,604.004,-16.602,-41.016,362.793,0.000
1741704883.694,-1000.000,-58.594,-39.551,-1000.000,0.000
1741704883.698,-824.219,-57.617,-30.762,-553.223,0.000
1741704883.702,674.805,-1.953,-33.691,945.801,0.000
1741704883.706,999.512,8.789,-46.875,965.332,0.000
1741704883.710,-152.832,-52.246,-58.594,-550.293,0.000
1741704883.714,-1000.000,-72.266,-56.152,-962.402,0.000
1741704883.718,172.363,-30.762,-48.828,572.266,0.000
1741704883.722,999.512,-5.371,-52.734,999.512,0.000
1741704883.725,141.602,-49.805,-55.176,-119.629,0.000
1741704883.730,-1000.000,-83.496,-44.922,-1000.000,0.000
1741704883.734,-330.566,-45.898,-35.645,-204.102,0.000
1741704883.737,999.512,-7.812,-36.621,999.512,0.000
1741704883.741,250.488,-30.273,-52.246,189.453,0.000
1741704883.745,-1000.000,-68.848,-55.176,-1000.000,0.000
1741704883.749,-373.047,-33.203,-39.062,-256.836,0.000
1741704883.753,999.512,10.742,-44.434,999.512,0.000
1741704883.757,449.707,-28.320,-59.082,288.086,0.000
1741704883.761,-1000.000,-81.055,-58.594,-1000.000,0.000
1741704883.765,-1000.000,-70.801,-51.758,-696.289,0.000
1741704883.768,473.145,-9.766,-42.969,895.996,0.000
1741704883.772,999.512,-7.812,-45.898,699.219,0.000
1741704883.776,-460.449,-64.453,-49.805,-828.125,0.000
1741704883.780,-1000.000,-76.172,-42.480,-1000.000,0.000
1741704883.784,-146.973,-33.691,-36.133,135.254,0.000
1741704883.788,999.512,-0.488,-44.434,999.512,0.000
1741704883.792,214.844,-34.668,-56.641,-28.809,0.000
1741704883.796,-1000.000,-57.617,-46.387,-1000.000,0.000
1741704883.800,-215.820,-17.578,-35.645,8.301,0.000
1741704883.804,999.512,2.930,-44.434,999.512,0.000
1741704883.808,225.098,-42.480,-52.246,162.109,0.000
1741704883.811,-1000.000,-65.430,-41.016,-1000.000,0.000
1741704883.815,-380.371,-28.320,-29.785,-268.555,0.000
1741704883.819,999.512,-5.859,-37.598,999.512,0.000
1741704883.823,468.262,-26.855,-49.316,300.293,0.000
1741704883.827,-998.047,-66.895,-49.805,-1000.000,0.000
1741704883.831,-1000.000,-75.195,-43.457,-763.184,0.000
1741704883.835,261.230,-28.320,-41.504,685.547,0.000
1741704883.839,999.512,-4.883,-42.969,999.512,0.000
1741704883.843,81.055,-34.668,-49.316,-338.379,0.000
1741704883.847,-1000.000,-51.270,-49.316,-1000.000,0.000
1741704883.850,-99.609,-25.391,-41.016,243.164,0.000
1741704883.854,999.512,-9.277,-41.992,999.512,0.000
1741704883.858,213.867,-43.945,-45.898,139.160,0.000
1741704883.862,-1000.000,-91.309,-51.758,-1000.000,0.000
1741704883.866,-392.578,-69.336,-44.434,-262.207,0.000
1741704883.870,999.512,-14.648,-34.180,999.512,0.000
1741704883.874,257.812,-41.504,-49.316,194.824,0.000
1741704883.878,-1000.000,-81.055,-51.758,-1000.000,0.000
1741704883.882,-490.723,-44.922,-42.480,-322.266,0.000
1741704883.886,983.887,-11.230,-38.086,999.512,0.000
1741704883.890,937.012,-12.695,-39.062,621.582,0.000
1741704883.893,-561.035,-50.293,-49.316,-957.520,0.000
1741704883.897,-1000.000,-71.289,-43.945,-752.930,0.000
1741704883.901,379.883,-23.926,-30.273,762.207,0.000
1741704883.905,999.512,-0.488,-32.227,999.512,0.000
1741704883.909,108.398,-43.457,-43.457,-174.805,0.000
1741704883.913,-1000.000,-76.172,-44.434,-1000.000,0.000
1741704883.917,-236.328,-34.180,-34.668,33.691,0.000
1741704883.921,999.512,4.395,-35.156,999.512,0.000
1741704883.925,225.098,-37.109,-43.457,48.828,0.000
1741704883.929,-1000.000,-79.590,-46.387,-1000.000,0.000
1741704883.933,-414.551,-51.270,-35.645,-266.113,0.000
1741704883.936,999.512,6.348,-30.273,999.512,0.000
1741704883.940,686.523,-6.348,-47.852,401.367,0.000
1741704883.944,-981.445,-66.895,-52.734,-1000.000,0.000
1741704883.948,-644.043,-54.688,-27.344,-406.250,0.000
1741704883.952,999.512,-9.277,-15.625,999.512,0.000
1741704883.956,743.652,-29.785,-30.273,484.375,0.000
1741704883.960,-822.754,-80.078,-38.574,-1000.000,0.000
1741704883.964,-1000.000,-66.895,-35.645,-751.953,0.000
1741704883.968,373.047,-17.090,-30.273,752.441,0.000
1741704883.972,999.512,-12.695,-28.320,999.512,0.000
1741704883.976,54.688,-61.523,-38.574,-251.465,0.000
1741704883.980,-1000.000,-93.262,-33.203,-1000.000,0.000
1741704883.983,-250.488,-41.016,-17.578,-174.316,0.000
1741704883.987,999.512,1.953,-20.020,999.512,0.000
1741704883.991,234.863,-46.875,-41.992,143.555,0.000
1741704883.995,-1000.000,-80.078,-48.340,-1000.000,0.000
1741704883.999,-389.648,-45.410,-35.645,-263.184,0.000
1741704884.003,999.512,-11.230,-28.809,999.512,0.000
1741704884.007,611.328,-22.461,-36.133,382.324,0.000
1741704884.011,-952.148,-64.941,-45.410,-1000.000,0.000
1741704884.015,-949.219,-63.477,-40.039,-645.020,0.000
1741704884.019,593.262,-10.742,-33.691,954.590,0.000
1741704884.023,999.512,-4.883,-35.645,747.559,0.000
1741704884.026,-383.789,-62.012,-45.898,-770.020,0.000
1741704884.030,-1000.000,-74.219,-46.875,-1000.000,0.000
1741704884.034,-117.188,-19.531,-25.879,234.863,0.000
1741704884.038,999.512,4.395,-25.391,999.512,0.000
1741704884.042,131.836,-40.039,-43.457,-187.988,0.000
1741704884.046,-1000.000,-79.102,-37.598,-1000.000,0.000
1741704884.050,-258.789,-34.668,-25.879,-155.273,0.000
1741704884.054,999.512,23.438,-30.762,999.512,0.000
1741704884.058,384.277,-16.113,-47.363,237.793,0.000
1741704884.062,-1000.000,-75.195,-50.293,-1000.000,0.000
1741704884.066,-587.891,-47.852,-33.203,-378.906,0.000
1741704884.069,999.512,2.441,-24.902,999.512,0.000
1741704884.073,759.766,-12.695,-35.156,472.656,0.000
1741704884.077,-754.883,-52.734,-45.410,-1000.000,0.000
1741704884.081,-1000.000,-58.105,-39.551,-865.234,0.000
1741704884.085,201.172,-21.484,-35.156,650.391,0.000
1741704884.089,999.512,0.000,-43.945,988.770,0.000
1741704884.093,-85.449,-31.738,-52.246,-497.559,0.000
1741704884.097,-1000.000,-57.617,-45.898,-1000.000,0.000
1741704884.101,-91.797,-19.531,-38.574,262.207,0.000
1741704884.105,999.512,0.488,-46.875,999.512,0.000
1741704884.109,-57.129,-49.805,-56.641,-384.766,0.000
1741704884.112,-1000.000,-69.336,-56.641,-1000.000,0.000
1741704884.116,-240.723,-28.809,-46.387,-179.199,0.000
1741704884.120,999.512,5.859,-47.363,999.512,0.000
1741704884.124,491.211,-11.719,-54.688,293.457,0.000
1741704884.128,-1000.000,-51.270,-54.688,-1000.000,0.000
1741704884.132,-872.559,-59.082,-46.875,-542.969,0.000
1741704884.136,769.531,-9.277,-34.668,999.512,0.000
1741704884.140,788.086,-6.836,-41.992,496.094,0.000
1741704884.144,-854.980,-57.129,-52.246,-1000.000,0.000
1741704884.147,-1000.000,-55.664,-45.410,-737.793,0.000
1741704884.152,479.004,-3.906,-35.645,860.352,0.000
1741704884.155,999.512,4.395,-35.156,815.430,0.000
1741704884.159,-302.246,-51.270,-43.945,-691.406,0.000
1741704884.163,-1000.000,-73.730,-34.180,-1000.000,0.000
1741704884.167,-186.035,-28.809,-17.090,75.195,0.000
1741704884.171,999.512,21.973,-23.926,999.512,0.000
1741704884.175,249.512,-18.066,-46.387,153.809,0.000
1741704884.179,-1000.000,-76.172,-41.016,-1000.000,0.000
1741704884.183,-263.184,-37.598,-23.438,-203.613,0.000
1741704884.187,999.512,9.766,-32.227,999.512,0.000
1741704884.190,799.805,-9.766,-41.992,490.234,0.000
1741704884.194,-814.453,-58.105,-46.387,-1000.000,0.000
1741704884.198,-625.488,-50.781,-37.109,-385.742,0.000
1741704884.202,999.512,-9.277,-31.250,999.512,0.000
1741704884.206,520.508,-45.410,-49.316,340.820,0.000
1741704884.210,-965.332,-96.191,-58.594,-1000.000,0.000
1741704884.214,-1000.000,-79.590,-45.410,-883.789,0.000
1741704884.218,132.812,-21.484,-27.832,492.188,0.000
1741704884.222,999.512,6.348,-29.785,999.512,0.000
1741704884.226,189.453,-44.434,-43.945,-28.809,0.000
1741704884.229,-1000.000,-102.051,-42.480,-1000.000,0.000
1741704884.233,-448.242,-75.684,-28.320,-248.047,0.000
1741704884.237,999.512,-28.809,-29.297,999.512,0.000
1741704884.241,272.949,-43.457,-44.434,187.012,0.000
1741704884.245,-1000.000,-82.520,-46.387,-1000.000,0.000
1741704884.249,-473.145,-61.523,-39.551,-297.852,0.000
1741704884.253,999.512,-10.742,-43.457,999.512,0.000
1741704884.257,568.848,-27.344,-53.223,327.637,0.000
1741704884.261,-1000.000,-67.383,-43.457,-1000.000,0.000
1741704884.265,-490.234,-33.203,-23.926,-324.707,0.000
1741704884.268,999.512,0.000,-21.484,999.512,0.000
1741704884.272,834.961,-29.297,-35.156,564.453,0.000
1741704884.276,-648.926,-70.801,-44.922,-988.770,0.000
1741704884.280,-1000.000,-63.477,-34.668,-826.172,0.000
1741704884.284,353.516,-13.672,-22.949,770.996,0.000
1741704884.288,999.512,-16.113,-34.668,892.090,0.000
1741704884.292,-218.750,-62.988,-49.805,-562.012,0.000
1741704884.296,-1000.000,-68.359,-39.551,-1000.000,0.000
1741704884.300,-224.121,-28.320,-21.973,-116.211,0.000
1741704884.304,999.512,-2.930,-21.973,999.512,0.000
1741704884.308,231.934,-40.039,-30.273,142.090,0.000
1741704884.312,-1000.000,-57.129,-30.273,-1000.000,0.000
1741704884.315,-272.949,-11.719,-25.391,-233.398,0.000
1741704884.319,999.512,5.371,-35.645,999.512,0.000
1741704884.323,507.324,-24.414,-40.527,338.379,0.000
1741704884.327,-985.352,-69.824,-33.691,-1000.000,0.000
1741704884.331,-1000.000,-69.824,-19.043,-730.469,0.000
1741704884.335,431.641,-20.996,-12.695,832.031,0.000
1741704884.339,999.512,-13.672,-24.902,886.230,0.000
1741704884.343,-215.332,-67.383,-33.691,-645.996,0.000
1741704884.347,-1000.000,-90.332,-29.297,-1000.000,0.000
1741704884.351,-31.738,-41.992,-19.043,265.137,0.000
1741704884.355,999.512,-14.160,-19.043,999.512,0.000
1741704884.359,257.324,-43.945,-27.832,147.461,0.000
1741704884.362,-1000.000,-84.961,-22.949,-1000.000,0.000
1741704884.366,-279.785,-68.848,-12.207,-225.098,0.000
1741704884.370,999.512,-27.832,-21.484,999.512,0.000
1741704884.374,239.258,-60.059,-36.621,200.684,0.000
1741704884.378,-1000.000,-100.586,-25.879,-1000.000,0.000
1741704884.382,-593.750,-68.848,-16.602,-384.766,0.000
1741704884.386,999.512,-27.344,-25.879,999.512,0.000
1741704884.390,597.168,-48.340,-39.551,372.070,0.000
1741704884.394,-919.434,-82.031,-46.875,-1000.000,0.000
1741704884.398,-1000.000,-72.266,-35.156,-891.602,0.000
1741704884.402,96.191,-35.645,-17.578,471.191,0.000
1741704884.405,999.512,-1.953,-17.090,999.512,0.000
1741704884.409,193.848,-38.086,-27.344,-4.883,0.000
1741704884.413,-1000.000,-87.891,-30.762,-1000.000,0.000
1741704884.417,-267.090,-64.941,-26.855,-131.836,0.000
1741704884.421,999.512,-27.832,-31.738,999.512,0.000
1741704884.425,225.586,-52.246,-46.875,86.914,0.000
1741704884.429,-1000.000,-78.125,-41.016,-1000.000,0.000
1741704884.433,-266.602,-40.039,-24.902,-204.590,0.000
1741704884.437,999.512,-17.090,-32.715,999.512,0.000
1741704884.441,308.105,-52.734,-46.387,212.891,0.000
1741704884.445,-1000.000,-76.172,-47.363,-1000.000,0.000
1741704884.448,-923.828,-64.453,-37.598,-631.348,0.000
1741704884.452,480.469,-15.137,-33.203,888.672,0.000
1741704884.456,999.512,8.301,-38.086,849.609,0.000
1741704884.460,-192.383,-50.293,-35.156,-626.953,0.000
1741704884.464,-1000.000,-83.496,-32.227,-1000.000,0.000
1741704884.468,-141.602,-39.062,-24.414,207.520,0.000
1741704884.472,999.512,-0.977,-35.156,999.512,0.000
1741704884.476,-10.254,-48.340,-48.828,-386.230,0.000
1741704884.480,-1000.000,-82.031,-42.969,-1000.000,0.000
1741704884.484,-226.562,-31.250,-39.062,-32.715,0.000
1741704884.488,999.512,7.812,-37.598,999.512,0.000
1741704884.491,336.426,-28.809,-41.016,196.289,0.000
1741704884.495,-1000.000,-70.312,-34.668,-1000.000,0.000
1741704884.499,-280.273,-25.391,-21.973,-238.281,0.000
1741704884.503,999.512,18.555,-23.926,999.512,0.000
1741704884.507,744.629,-12.207,-37.598,453.613,0.000
1741704884.511,-781.250,-62.988,-47.363,-1000.000,0.000
1741704884.515,-975.098,-69.336,-41.016,-641.113,0.000
1741704884.519,572.266,-30.762,-37.598,952.148,0.000
1741704884.522,999.512,-19.531,-40.527,811.035,0.000
1741704884.527,-257.324,-46.875,-34.180,-713.867,0.000
1741704884.531,-1000.000,-66.406,-35.645,-1000.000,0.000
1741704884.534,23.926,-29.297,-30.762,404.297,0.000
1741704884.538,999.512,-14.160,-30.273,999.512,0.000
1741704884.542,-49.316,-69.824,-44.434,-413.574,0.000
1741704884.546,-1000.000,-77.148,-37.109,-1000.000,0.000
1741704884.550,-107.910,-24.902,-24.414,170.410,0.000
1741704884.554,999.512,-20.020,-33.203,999.512,0.000
1741704884.558,219.238,-59.082,-45.898,106.934,0.000
1741704884.562,-1000.000,-88.867,-44.922,-1000.000,0.000
1741704884.565,-388.672,-50.781,-31.738,-269.531,0.000
1741704884.569,999.512,-3.418,-23.438,999.512,0.000
1741704884.573,451.660,-37.598,-46.387,294.434,0.000
1741704884.577,-1000.000,-90.332,-65.430,-1000.000,0.000
1741704884.581,-936.523,-72.754,-46.875,-649.414,0.000
1741704884.585,550.293,-14.648,-28.809,919.922,0.000
1741704884.589,999.512,-9.277,-36.621,777.344,0.000
1741704884.593,-401.367,-51.270,-45.410,-799.805,0.000
1741704884.597,-1000.000,-68.848,-39.062,-1000.000,0.000
1741704884.601,81.543,-24.902,-24.902,439.941,0.000
1741704884.605,999.512,0.488,-29.785,999.512,0.000
1741704884.608,104.004,-48.340,-44.922,-188.965,0.000
1741704884.612,-1000.000,-70.801,-40.039,-1000.000,0.000
1741704884.616,-264.648,-36.133,-32.715,-202.148,0.000
1741704884.620,999.512,2.930,-34.668,999.512,0.000
1741704884.624,469.238,-16.113,-52.734,282.715,0.000
1741704884.628,-1000.000,-63.965,-57.129,-1000.000,0.000
1741704884.632,-492.676,-48.340,-32.227,-329.102,0.000
1741704884.636,999.512,-3.906,-22.949,999.512,0.000
1741704884.640,976.074,-11.230,-34.668,630.371,0.000
1741704884.644,-523.926,-50.293,-38.086,-965.820,0.000
1741704884.647,-987.305,-55.176,-30.762,-647.949,0.000
1741704884.651,671.875,-18.066,-28.320,999.512,0.000
1741704884.655,974.609,-19.043,-39.062,657.227,0.000
1741704884.659,-482.910,-66.895,-49.805,-792.480,0.000
1741704884.663,-1000.000,-79.102,-46.387,-1000.000,0.000
1741704884.667,-189.453,-33.691,-35.156,3.418,0.000
1741704884.671,999.512,-10.742,-44.922,999.512,0.000
1741704884.675,-45.410,-56.152,-48.828,-371.582,0.000
1741704884.679,-1000.000,-63.965,-28.809,-1000.000,0.000
1741704884.683,-237.305,-18.066,-15.625,-148.438,0.000
1741704884.687,999.512,15.137,-17.090,999.512,0.000
1741704884.691,484.375,-15.137,-34.180,292.480,0.000
1741704884.694,-1000.000,-74.707,-41.016,-1000.000,0.000
1741704884.698,-536.133,-51.270,-29.785,-342.773,0.000
1741704884.702,999.512,0.977,-28.809,999.512,0.000
1741704884.706,628.418,-17.578,-37.109,395.508,0.000
1741704884.710,-946.289,-63.477,-42.480,-1000.000,0.000
1741704884.714,-962.402,-59.570,-43.457,-656.250,0.000
1741704884.718,447.754,-19.043,-41.504,803.223,0.000
1741704884.722,999.512,-9.766,-47.363,999.512,0.000
1741704884.726,97.168,-46.387,-52.734,-251.465,0.000
1741704884.730,-1000.000,-72.754,-46.875,-1000.000,0.000
1741704884.734,-50.781,-25.879,-37.598,262.207,0.000
1741704884.737,999.512,10.742,-36.621,999.512,0.000
1741704884.741,202.148,-44.434,-49.805,91.309,0.000
1741704884.745,-1000.000,-91.797,-53.711,-1000.000,0.000
1741704884.749,-780.762,-71.289,-42.969,-469.727,0.000
1741704884.753,824.707,-17.578,-40.039,999.512,0.000
1741704884.757,744.629,-17.578,-49.805,421.875,0.000
1741704884.761,-1000.000,-71.777,-49.316,-1000.000,0.000
1741704884.765,-622.070,-57.129,-32.227,-413.574,0.000
1741704884.769,934.570,-5.371,-30.273,999.512,0.000
1741704884.773,999.512,-19.043,-36.133,745.117,0.000
1741704884.777,-389.160,-68.848,-32.715,-846.191,0.000
1741704884.780,-1000.000,-69.824,-27.832,-758.789,0.000
1741704884.784,478.027,-23.926,-27.832,836.914,0.000
1741704884.788,999.512,-24.414,-33.691,996.582,0.000
1741704884.792,-62.012,-63.477,-34.668,-363.770,0.000
1741704884.796,-1000.000,-85.938,-30.273,-1000.000,0.000
1741704884.800,-236.816,-41.016,-21.484,-138.672,0.000
1741704884.804,999.512,0.488,-30.273,999.512,0.000
1741704884.808,241.211,-38.086,-50.293,182.617,0.000
1741704884.812,-1000.000,-86.426,-45.898,-1000.000,0.000
1741704884.816,-497.559,-63.477,-31.738,-328.613,0.000
1741704884.820,962.402,-15.625,-30.762,999.512,0.000
1741704884.823,997.559,-18.066,-37.598,618.652,0.000
1741704884.827,-537.109,-52.734,-37.598,-983.398,0.000
1741704884.831,-938.965,-56.641,-31.250,-645.508,0.000
1741704884.835,694.824,-18.555,-29.785,999.512,0.000
1741704884.839,999.512,-17.578,-44.922,754.395,0.000
1741704884.843,-347.656,-72.266,-48.340,-721.191,0.000
1741704884.847,-1000.000,-90.332,-41.504,-1000.000,0.000
1741704884.851,-168.945,-36.133,-49.805,143.555,0.000
1741704884.855,999.512,-15.137,-52.246,999.512,0.000
1741704884.859,44.922,-57.617,-45.410,-309.082,0.000
1741704884.863,-1000.000,-74.707,-40.527,-1000.000,0.000
1741704884.866,-242.676,-32.715,-35.156,-99.609,0.000
1741704884.870,999.512,-0.977,-38.574,999.512,0.000
1741704884.874,324.219,-25.879,-49.316,202.637,0.000
1741704884.878,-1000.000,-62.988,-44.434,-1000.000,0.000
1741704884.882,-593.750,-60.547,-24.902,-389.160,0.000
1741704884.886,999.512,-27.344,-27.832,999.512,0.000
1741704884.890,712.891,-40.039,-42.480,437.012,0.000
1741704884.894,-827.637,-89.355,-41.992,-1000.000,0.000
1741704884.898,-1000.000,-92.773,-24.414,-847.168,0.000
1741704884.902,239.746,-46.387,-13.184,650.879,0.000
1741704884.906,999.512,-24.414,-16.113,999.512,0.000
1741704884.909,-74.707,-71.777,-18.555,-506.836,0.000
1741704884.913,-1000.000,-93.262,-13.672,-1000.000,0.000
1741704884.917,106.934,-41.992,-6.348,447.266,0.000
1741704884.921,999.512,-21.484,-5.859,999.512,0.000
1741704884.925,259.766,-54.688,-17.090,150.391,0.000
1741704884.929,-1000.000,-104.980,-20.996,-1000.000,0.000
1741704884.933,-283.691,-70.801,-9.277,-219.238,0.000
1741704884.937,999.512,-16.602,-8.301,999.512,0.000
1741704884.941,314.941,-61.035,-24.902,223.145,0.000
1741704884.944,-1000.000,-104.980,-28.809,-1000.000,0.000
1741704884.949,-735.840,-74.219,-12.207,-462.891,0.000
1741704884.952,893.066,-34.668,-8.789,999.512,0.000
1741704884.956,713.379,-50.293,-27.344,442.871,0.000
1741704884.960,-951.660,-94.727,-35.156,-1000.000,0.000
1741704884.964,-928.223,-73.730,-22.461,-654.785,0.000
1741704884.968,660.156,-8.789,-7.324,969.727,0.000
1741704884.972,973.145,-24.902,-22.461,673.340,0.000
1741704884.976,-477.539,-88.379,-42.480,-795.410,0.000
1741704884.980,-1000.000,-91.309,-27.344,-1000.000,0.000
1741704884.983,-216.797,-48.340,-18.066,-73.730,0.000
1741704884.987,999.512,-16.113,-25.879,999.512,0.000
1741704884.991,223.633,-49.805,-31.738,-10.742,0.000
1741704884.995,-1000.000,-87.891,-33.203,-1000.000,0.000
1741704884.999,-407.715,-48.828,-25.391,-259.277,0.000
1741704885.003,999.512,10.254,-26.367,999.512,0.000
1741704885.007,274.414,-28.320,-44.922,223.633,0.000
1741704885.011,-1000.000,-86.426,-49.316,-1000.000,0.000
1741704885.015,-443.359,-42.480,-34.180,-324.219,0.000
1741704885.019,968.262,20.020,-23.438,999.512,0.000
1741704885.023,999.512,3.906,-35.156,738.770,0.000
1741704885.026,-244.141,-61.035,-53.711,-652.832,0.000
1741704885.030,-1000.000,-87.891,-46.387,-1000.000,0.000
1741704885.034,-189.941,-43.945,-30.762,58.105,0.000
1741704885.038,999.512,-3.418,-31.738,999.512,0.000
1741704885.042,82.520,-50.781,-37.598,-249.512,0.000
1741704885.046,-1000.000,-95.703,-39.551,-1000.000,0.000
1741704885.050,-242.188,-37.598,-29.297,-99.609,0.000
1741704885.054,999.512,3.906,-28.809,999.512,0.000
1741704885.058,230.469,-37.598,-31.250,164.551,0.000
1741704885.062,-1000.000,-59.570,-26.367,-1000.000,0.000
1741704885.066,-292.480,-28.809,-17.578,-236.816,0.000
1741704885.069,999.512,-3.418,-14.648,999.512,0.000
1741704885.073,329.590,-50.293,-37.598,233.887,0.000
1741704885.077,-1000.000,-89.844,-41.992,-1000.000,0.000
1741704885.081,-751.465,-57.129,-25.879,-520.996,0.000
1741704885.085,745.117,-10.742,-25.879,999.512,0.000
1741704885.089,999.512,-14.648,-33.203,745.117,0.000
1741704885.093,-369.141,-59.570,-37.598,-818.359,0.000
1741704885.097,-1000.000,-71.777,-30.762,-962.891,0.000
1741704885.101,138.672,-31.738,-19.043,466.797,0.000
1741704885.105,999.512,-3.906,-30.273,999.512,0.000
1741704885.109,190.918,-34.668,-47.852,90.820,0.000
1741704885.113,-1000.000,-72.266,-42.480,-1000.000,0.000
1741704885.116,-267.578,-47.363,-29.297,-181.152,0.000
1741704885.120,999.512,-10.742,-30.762,999.512,0.000
1741704885.124,221.191,-48.828,-39.062,200.195,0.000
1741704885.128,-1000.000,-91.797,-43.945,-1000.000,0.000
1741704885.132,-899.902,-74.707,-40.527,-550.293,0.000
1741704885.136,662.598,-22.949,-41.504,999.512,0.000
1741704885.140,770.508,-23.926,-44.922,450.684,0.000
1741704885.144,-979.980,-74.707,-43.945,-1000.000,0.000
1741704885.148,-800.781,-54.688,-29.297,-525.391,0.000
1741704885.152,693.848,-3.906,-22.461,941.895,0.000
1741704885.156,999.512,1.465,-33.203,999.512,0.000
1741704885.159,53.223,-41.016,-45.410,-351.074,0.000
1741704885.163,-1000.000,-72.266,-49.316,-1000.000,0.000
1741704885.167,-43.457,-37.598,-47.852,303.223,0.000
1741704885.171,999.512,-14.160,-46.387,999.512,0.000
1741704885.175,157.715,-50.293,-43.945,-102.051,0.000
1741704885.179,-1000.000,-81.543,-40.039,-1000.000,0.000
1741704885.183,-270.508,-34.180,-26.855,-198.730,0.000
1741704885.187,999.512,4.395,-24.414,999.512,0.000
1741704885.191,567.871,-23.438,-36.133,339.844,0.000
1741704885.195,-1000.000,-64.453,-41.016,-1000.000,0.000
1741704885.199,-700.195,-62.988,-34.668,-435.059,0.000
1741704885.202,950.684,-6.348,-36.133,999.512,0.000
1741704885.206,819.824,-14.160,-47.363,528.809,0.000
1741704885.210,-616.699,-75.684,-50.293,-892.578,0.000
1741704885.214,-1000.000,-85.449,-43.457,-1000.000,0.000
1741704885.218,-155.762,-43.945,-28.809,143.066,0.000
1741704885.222,999.512,-17.578,-30.762,865.234,0.000
1741704885.226,-231.934,-57.617,-43.945,-640.625,0.000
1741704885.230,-1000.000,-75.195,-38.086,-1000.000,0.000
1741704885.234,-192.383,-35.645,-32.715,3.906,0.000
1741704885.238,999.512,-2.930,-40.039,999.512,0.000
1741704885.242,228.027,-41.016,-51.270,93.750,0.000
1741704885.245,-1000.000,-77.637,-46.387,-1000.000,0.000
1741704885.249,-266.113,-22.949,-30.762,-125.000,0.000
1741704885.253,999.512,14.160,-30.762,999.512,0.000
1741704885.257,423.340,-33.203,-41.992,246.582,0.000
1741704885.261,-1000.000,-86.914,-47.852,-1000.000,0.000
1741704885.265,-589.844,-60.059,-36.133,-397.461,0.000
1741704885.269,999.512,-8.789,-35.156,999.512,0.000
1741704885.273,806.641,-27.832,-45.410,515.625,0.000
1741704885.277,-647.949,-75.195,-52.246,-954.102,0.000
1741704885.281,-1000.000,-84.961,-51.758,-1000.000,0.000
1741704885.285,-35.156,-36.133,-39.551,313.477,0.000
1741704885.288,999.512,-9.277,-38.574,999.512,0.000
1741704885.292,93.262,-61.523,-52.734,-237.305,0.000
1741704885.296,-1000.000,-76.660,-55.176,-1000.000,0.000
1741704885.300,-145.020,-31.250,-37.598,171.875,0.000
1741704885.304,999.512,-20.996,-35.645,999.512,0.000
1741704885.308,162.598,-57.129,-44.922,-73.242,0.000
1741704885.312,-1000.000,-81.543,-44.922,-1000.000,0.000
1741704885.316,-655.273,-69.824,-41.016,-377.441,0.000
1741704885.319,969.238,-26.367,-45.410,999.512,0.000
1741704885.324,504.395,-26.855,-60.547,299.805,0.000
1741704885.327,-1000.000,-76.172,-60.059,-1000.000,0.000
1741704885.331,-727.539,-57.617,-44.434,-494.141,0.000
1741704885.335,793.945,1.465,-35.645,999.512,0.000
1741704885.339,999.512,0.000,-46.387,717.773,0.000
1741704885.343,-359.375,-34.668,-56.152,-816.406,0.000
1741704885.347,-1000.000,-42.480,-50.293,-1000.000,0.000
1741704885.351,58.594,-15.625,-43.457,392.090,0.000
1741704885.355,999.512,13.672,-51.758,999.512,0.000
1741704885.359,194.824,-21.973,-55.664,20.020,0.000
1741704885.362,-1000.000,-49.316,-47.852,-1000.000,0.000
1741704885.366,-234.375,-10.742,-35.645,23.438,0.000
1741704885.370,999.512,9.277,-42.969,999.512,0.000
1741704885.374,228.516,-31.250,-67.383,125.488,0.000
1741704885.378,-1000.000,-73.730,-61.035,-1000.000,0.000
1741704885.382,-352.539,-39.062,-42.480,-257.324,0.000
1741704885.386,953.613,10.254,-37.598,999.512,0.000
1741704885.390,999.512,20.508,-43.457,930.664,0.000
1741704885.394,-98.145,-21.973,-45.898,-568.848,0.000
1741704885.398,-1000.000,-61.523,-39.551,-714.355,0.000
1741704885.401,562.988,-23.926,-38.574,981.445,0.000
1741704885.405,999.512,-15.137,-50.781,796.875,0.000
1741704885.409,-301.758,-57.129,-55.176,-652.832,0.000
1741704885.413,-1000.000,-78.125,-47.363,-1000.000,0.000
1741704885.417,-221.680,-36.133,-37.598,-71.777,0.000
1741704885.421,999.512,5.371,-37.598,999.512,0.000
1741704885.425,231.934,-32.715,-48.340,23.926,0.000
1741704885.429,-1000.000,-73.242,-45.410,-1000.000,0.000
1741704885.433,-269.043,-35.645,-27.344,-185.059,0.000
1741704885.437,999.512,13.672,-28.809,999.512,0.000
1741704885.441,389.160,-16.602,-48.828,247.559,0.000
1741704885.445,-1000.000,-72.266,-46.875,-1000.000,0.000
1741704885.448,-554.688,-52.734,-26.367,-347.168,0.000
1741704885.452,999.512,0.977,-16.602,999.512,0.000
1741704885.456,567.383,-22.949,-28.809,369.141,0.000
1741704885.460,-893.555,-80.566,-43.457,-1000.000,0.000
1741704885.464,-1000.000,-81.543,-42.969,-1000.000,0.000
1741704885.468,-1.953,-28.809,-44.922,395.508,0.000
1741704885.472,999.512,-1.953,-51.270,933.594,0.000
1741704885.476,-241.211,-53.223,-55.176,-694.824,0.000
1741704885.480,-1000.000,-60.547,-40.039,-1000.000,0.000
1741704885.484,109.863,-5.859,-21.973,431.152,0.000
1741704885.488,999.512,11.230,-26.855,999.512,0.000
1741704885.491,191.895,-45.410,-38.574,67.871,0.000
1741704885.495,-1000.000,-88.379,-38.086,-1000.000,0.000
1741704885.499,-258.789,-34.180,-24.414,-90.332,0.000
1741704885.503,999.512,4.883,-25.391,999.512,0.000
1741704885.507,252.441,-46.387,-42.969,200.684,0.000
1741704885.511,-1000.000,-85.449,-44.434,-1000.000,0.000
1741704885.515,-744.141,-60.547,-38.086,-493.164,0.000
1741704885.519,838.379,-14.160,-41.504,999.512,0.000
1741704885.523,817.383,-17.090,-49.805,530.273,0.000
1741704885.527,-774.414,-72.754,-49.805,-1000.000,0.000
1741704885.531,-1000.000,-73.730,-41.504,-812.012,0.000
1741704885.534,309.082,-2.930,-31.738,688.477,0.000
1741704885.538,999.512,10.254,-43.457,999.512,0.000
1741704885.542,-89.844,-53.223,-55.176,-415.039,0.000
1741704885.546,-1000.000,-78.613,-39.062,-1000.000,0.000
1741704885.550,-203.613,-28.809,-33.691,35.645,0.000
1741704885.554,999.512,3.418,-45.410,999.512,0.000
1741704885.558,226.562,-48.340,-49.805,69.336,0.000
1741704885.562,-1000.000,-76.172,-41.992,-1000.000,0.000
1741704885.566,-265.137,-26.367,-27.344,-215.332,0.000
1741704885.570,999.512,2.930,-33.691,999.512,0.000
1741704885.574,287.598,-46.875,-47.363,221.191,0.000
1741704885.577,-1000.000,-69.336,-41.504,-1000.000,0.000
1741704885.581,-474.121,-23.438,-29.785,-333.496,0.000
1741704885.585,999.512,-0.488,-28.809,999.512,0.000
1741704885.589,798.828,-24.414,-41.504,530.273,0.000
1741704885.593,-635.254,-71.289,-48.340,-937.988,0.000
1741704885.597,-1000.000,-77.637,-35.645,-1000.000,0.000
1741704885.601,2.441,-27.832,-24.902,371.582,0.000
1741704885.605,999.512,-9.766,-29.297,999.512,0.000
1741704885.609,-6.348,-63.477,-42.969,-350.098,0.000
1741704885.613,-1000.000,-84.961,-45.410,-1000.000,0.000
1741704885.617,-235.840,-41.504,-42.969,-102.051,0.000
1741704885.620,999.512,-9.277,-41.504,999.512,0.000
1741704885.624,802.734,-11.230,-42.480,456.055,0.000
1741704885.628,-816.895,-55.664,-45.410,-1000.000,0.000
1741704885.632,-551.270,-65.918,-39.551,-339.355,0.000
1741704885.636,999.512,-14.160,-31.738,999.512,0.000
1741704885.640,603.027,-30.273,-42.969,371.094,0.000
1741704885.644,-849.609,-79.102,-48.340,-1000.000,0.000
1741704885.648,-1000.000,-72.266,-33.203,-958.984,0.000
1741704885.652,184.570,-38.086,-38.574,620.117,0.000
1741704885.656,884.766,-36.133,-55.176,630.859,0.000
1741704885.660,-674.316,-72.266,-54.688,-980.957,0.000
1741704885.663,-1000.000,-70.312,-46.387,-1000.000,0.000
1741704885.667,40.039,-22.949,-39.062,325.684,0.000
1741704885.671,999.512,8.301,-31.250,999.512,0.000
1741704885.675,205.078,-40.527,-38.086,32.227,0.000
1741704885.679,-1000.000,-91.797,-44.922,-1000.000,0.000
1741704885.683,-375.000,-59.082,-31.738,-245.117,0.000
1741704885.687,999.512,-9.766,-30.762,999.512,0.000
1741704885.691,369.629,-30.273,-39.062,243.164,0.000
1741704885.695,-1000.000,-73.730,-38.574,-1000.000,0.000
1741704885.699,-944.824,-72.754,-36.133,-665.527,0.000
1741704885.703,471.191,-19.043,-33.691,878.906,0.000
1741704885.706,999.512,14.160,-40.039,823.242,0.000
1741704885.710,-370.117,-37.109,-49.316,-846.680,0.000
1741704885.714,-1000.000,-56.152,-35.156,-745.605,0.000
1741704885.718,536.621,8.301,-23.926,901.367,0.000
1741704885.722,999.512,8.301,-46.875,866.699,0.000
1741704885.726,-214.355,-59.570,-48.828,-632.812,0.000
1741704885.730,-1000.000,-67.871,-28.320,-1000.000,0.000
1741704885.734,-84.961,-25.879,-28.809,245.117,0.000
1741704885.737,999.512,0.000,-35.645,999.512,0.000
1741704885.741,144.043,-45.898,-54.199,-146.973,0.000
1741704885.745,-1000.000,-69.824,-52.734,-1000.000,0.000
1741704885.749,-266.113,-27.344,-33.203,-156.250,0.000
1741704885.753,999.512,6.348,-41.504,999.512,0.000
1741704885.757,523.926,-16.113,-61.035,318.848,0.000
1741704885.761,-1000.000,-69.824,-61.035,-1000.000,0.000
1741704885.765,-826.172,-63.965,-45.898,-524.902,0.000
1741704885.769,870.117,-13.672,-42.969,999.512,0.000
1741704885.773,654.785,-26.367,-48.828,400.879,0.000
1741704885.777,-852.051,-72.266,-53.711,-997.070,0.000
1741704885.780,-1000.000,-79.590,-49.805,-1000.000,0.000
1741704885.784,-208.008,-36.133,-46.875,33.203,0.000
1741704885.788,999.512,3.906,-49.805,999.512,0.000
1741704885.792,145.508,-39.551,-54.199,-233.398,0.000
1741704885.796,-1000.000,-69.824,-48.340,-1000.000,0.000
1741704885.800,-250.488,-34.180,-37.109,-78.125,0.000
1741704885.804,999.512,-7.324,-40.527,999.512,0.000
1741704885.808,242.188,-36.133,-51.270,172.363,0.000
1741704885.812,-1000.000,-67.871,-45.410,-1000.000,0.000
1741704885.816,-309.082,-36.621,-32.715,-242.676,0.000
1741704885.820,999.512,2.441,-30.762,999.512,0.000
1741704885.823,483.887,-32.227,-40.039,302.246,0.000
1741704885.827,-1000.000,-83.496,-46.875,-1000.000,0.000
1741704885.831,-775.879,-61.523,-35.645,-504.395,0.000
1741704885.835,737.793,-4.883,-27.344,999.512,0.000
1741704885.839,999.512,-2.930,-35.156,833.496,0.000
1741704885.843,-258.301,-51.758,-40.039,-687.012,0.000
1741704885.847,-1000.000,-68.848,-39.062,-1000.000,0.000
1741704885.851,32.227,-30.762,-27.344,447.754,0.000
1741704885.855,999.512,-4.395,-31.738,999.512,0.000
1741704885.859,116.699,-37.109,-38.574,-215.332,0.000
1741704885.863,-1000.000,-66.406,-23.926,-1000.000,0.000
1741704885.867,-240.234,-29.785,-12.207,-1.953,0.000
1741704885.870,999.512,-3.906,-22.461,999.512,0.000
1741704885.874,235.840,-38.574,-35.645,151.855,0.000
1741704885.878,-1000.000,-73.730,-32.715,-1000.000,0.000
1741704885.882,-490.234,-49.805,-26.855,-309.570,0.000
1741704885.886,999.512,-3.906,-30.273,999.512,0.000
1741704885.890,397.949,-41.992,-49.316,265.625,0.000
1741704885.894,-1000.000,-95.215,-59.570,-1000.000,0.000
1741704885.898,-946.777,-67.383,-46.875,-666.016,0.000
1741704885.902,422.852,-11.719,-35.645,819.336,0.000
1741704885.906,999.512,10.742,-39.551,979.004,0.000
1741704885.910,-67.871,-37.109,-46.387,-418.457,0.000
1741704885.913,-1000.000,-72.266,-44.434,-1000.000,0.000
1741704885.917,-236.816,-29.297,-38.086,-29.297,0.000
1741704885.921,999.512,11.719,-45.898,999.512,0.000
1741704885.925,228.516,-22.949,-61.035,67.871,0.000
1741704885.929,-1000.000,-57.129,-53.223,-1000.000,0.000
1741704885.933,-246.094,-6.348,-37.598,-48.828,0.000
1741704885.937,999.512,30.273,-37.598,999.512,0.000
1741704885.941,337.891,-18.555,-54.688,206.543,0.000
1741704885.945,-1000.000,-69.824,-66.895,-1000.000,0.000
1741704885.949,-380.859,-34.668,-56.152,-262.207,0.000
1741704885.953,999.512,15.625,-44.434,999.512,0.000
1741704885.956,521.484,-16.113,-52.734,354.492,0.000
1741704885.960,-965.820,-72.754,-65.430,-1000.000,0.000
1741704885.964,-1000.000,-67.383,-53.223,-759.277,0.000
1741704885.968,332.520,-19.043,-41.992,784.180,0.000
1741704885.972,999.512,-0.977,-49.805,897.461,0.000
1741704885.976,-189.941,-51.758,-56.152,-541.504,0.000
1741704885.980,-1000.000,-84.473,-49.316,-1000.000,0.000
1741704885.984,-229.492,-48.828,-39.062,-163.086,0.000
1741704885.988,999.512,-4.883,-37.109,999.512,0.000
1741704885.992,287.109,-23.926,-41.016,199.219,0.000
1741704885.996,-1000.000,-73.730,-34.180,-1000.000,0.000
1741704885.999,-274.414,-43.945,-17.090,-171.875,0.000
1741704886.003,999.512,-2.930,-18.555,999.512,0.000
1741704886.007,288.086,-53.223,-34.180,217.285,0.000
1741704886.011,-1000.000,-111.816,-35.645,-1000.000,0.000
1741704886.015,-873.535,-94.238,-19.531,-588.867,0.000
1741704886.019,643.066,-36.133,-11.230,995.117,0.000
1741704886.023,966.309,-31.738,-20.996,626.953,0.000
1741704886.027,-625.977,-81.543,-27.344,-1000.000,0.000
1741704886.031,-1000.000,-79.590,-22.949,-800.293,0.000
1741704886.035,337.891,-30.273,-21.973,734.375,0.000
1741704886.039,999.512,-20.020,-23.926,999.512,0.000
1741704886.042,-31.738,-62.988,-29.297,-432.129,0.000
1741704886.046,-1000.000,-77.148,-26.367,-1000.000,0.000
1741704886.050,27.344,-18.555,-20.020,364.746,0.000
1741704886.054,999.512,-2.930,-28.320,999.512,0.000
1741704886.058,219.238,-54.199,-37.109,161.621,0.000
1741704886.062,-1000.000,-84.473,-34.180,-1000.000,0.000
1741704886.066,-311.035,-51.758,-27.344,-248.047,0.000
1741704886.070,999.512,-18.555,-36.133,999.512,0.000
1741704886.074,356.445,-44.434,-46.875,247.559,0.000
1741704886.078,-1000.000,-75.684,-46.387,-1000.000,0.000
1741704886.081,-767.090,-58.594,-37.598,-507.324,0.000
1741704886.085,779.297,-23.926,-33.691,999.512,0.000
1741704886.089,969.727,-31.250,-42.480,639.648,0.000
1741704886.093,-552.734,-67.871,-41.016,-953.125,0.000
1741704886.097,-1000.000,-62.012,-28.320,-850.586,0.000
1741704886.101,266.602,-27.344,-26.855,713.867,0.000
1741704886.105,999.512,-18.066,-42.480,979.980,0.000
1741704886.109,-151.367,-67.383,-54.688,-504.883,0.000
1741704886.113,-1000.000,-79.102,-50.293,-1000.000,0.000
1741704886.116,-91.797,-26.855,-35.645,161.133,0.000
1741704886.121,999.512,-12.695,-33.691,999.512,0.000
1741704886.124,213.867,-53.223,-54.688,127.441,0.000
1741704886.128,-1000.000,-85.449,-59.570,-1000.000,0.000
1741704886.132,-295.410,-44.434,-41.504,-248.047,0.000
1741704886.136,999.512,-9.277,-35.645,999.512,0.000
1741704886.140,593.262,-35.645,-44.434,369.629,0.000
1741704886.144,-1000.000,-74.707,-47.363,-1000.000,0.000
1741704886.148,-759.766,-64.941,-31.738,-501.953,0.000
1741704886.152,875.000,-10.742,-25.879,999.512,0.000
1741704886.155,899.902,-13.672,-39.551,592.285,0.000
1741704886.159,-534.668,-63.965,-40.039,-821.777,0.000
1741704886.163,-1000.000,-83.984,-31.738,-1000.000,0.000
1741704886.167,-216.797,-45.898,-28.320,-136.230,0.000
1741704886.171,999.512,-4.883,-39.551,999.512,0.000
1741704886.175,215.332,-40.039,-44.434,-55.664,0.000
1741704886.179,-1000.000,-74.707,-36.621,-1000.000,0.000
1741704886.183,-258.789,-32.715,-26.367,-64.453,0.000
1741704886.187,999.512,6.348,-27.832,999.512,0.000
1741704886.191,289.062,-28.320,-46.875,206.055,0.000
1741704886.195,-1000.000,-73.242,-46.387,-1000.000,0.000
1741704886.198,-624.512,-48.828,-25.391,-381.348,0.000
1741704886.202,999.512,-4.883,-24.902,999.512,0.000
1741704886.206,315.918,-41.992,-41.504,249.512,0.000
1741704886.210,-1000.000,-83.496,-44.922,-1000.000,0.000
1741704886.214,-753.906,-50.781,-38.086,-543.945,0.000
1741704886.218,702.637,5.859,-33.691,979.004,0.000
1741704886.222,999.512,2.441,-43.945,813.965,0.000
1741704886.226,-304.688,-62.988,-56.152,-724.121,0.000
1741704886.230,-1000.000,-79.590,-53.223,-1000.000,0.000
1741704886.234,37.598,-26.367,-44.434,378.906,0.000
1741704886.238,999.512,-2.930,-41.504,999.512,0.000
1741704886.241,200.195,-46.387,-47.852,23.438,0.000
1741704886.245,-1000.000,-84.961,-39.551,-1000.000,0.000
1741704886.249,-276.367,-48.340,-26.855,-222.656,0.000
1741704886.253,999.512,-2.441,-38.086,999.512,0.000
1741704886.257,834.473,-10.254,-51.758,512.207,0.000
1741704886.261,-712.402,-54.688,-54.199,-1000.000,0.000
1741704886.265,-894.043,-66.895,-41.992,-542.969,0.000
1741704886.269,825.684,-22.949,-27.832,999.512,0.000
1741704886.273,852.051,-20.996,-44.434,512.207,0.000
1741704886.277,-879.395,-63.965,-52.246,-1000.000,0.000
1741704886.281,-751.953,-44.922,-35.156,-498.535,0.000
1741704886.284,864.746,-4.883,-24.902,999.512,0.000
1741704886.288,999.512,-24.902,-31.738,744.629,0.000
1741704886.292,-327.148,-72.266,-44.434,-650.391,0.000
1741704886.296,-1000.000,-81.055,-35.645,-1000.000,0.000
1741704886.300,-263.184,-42.969,-28.320,-176.758,0.000
1741704886.304,999.512,-0.488,-38.574,999.512,0.000
1741704886.308,243.652,-25.391,-46.387,114.746,0.000
1741704886.312,-1000.000,-73.730,-49.316,-1000.000,0.000
1741704886.316,-350.098,-37.109,-37.109,-241.699,0.000
1741704886.320,999.512,4.395,-30.762,999.512,0.000
1741704886.324,478.516,-15.625,-43.457,285.156,0.000
1741704886.327,-1000.000,-57.129,-45.410,-1000.000,0.000
1741704886.331,-505.859,-36.133,-42.480,-331.055,0.000
1741704886.335,999.512,0.977,-43.945,999.512,0.000
1741704886.339,811.523,-25.879,-43.945,511.230,0.000
1741704886.343,-754.883,-70.312,-46.387,-1000.000,0.000
1741704886.347,-962.402,-61.523,-36.133,-689.941,0.000
1741704886.351,511.719,-8.789,-29.785,800.293,0.000
1741704886.355,999.512,-3.418,-40.039,999.512,0.000
1741704886.359,141.113,-48.828,-44.922,-134.277,0.000
1741704886.363,-1000.000,-88.867,-40.527,-1000.000,0.000
1741704886.367,-262.207,-52.734,-29.785,-66.895,0.000
1741704886.370,999.512,-9.766,-33.203,999.512,0.000
1741704886.374,236.816,-45.410,-56.641,115.234,0.000
1741704886.378,-1000.000,-76.172,-56.152,-1000.000,0.000
1741704886.382,-619.141,-59.570,-35.156,-389.160,0.000
1741704886.386,999.512,-16.602,-29.297,999.512,0.000
1741704886.390,595.215,-25.391,-43.945,352.051,0.000
1741704886.394,-1000.000,-64.453,-51.270,-1000.000,0.000
1741704886.398,-904.297,-53.223,-34.180,-613.281,0.000
1741704886.402,681.152,-10.254,-25.879,996.582,0.000
1741704886.406,928.711,-14.160,-39.062,614.258,0.000
1741704886.410,-593.750,-60.059,-40.039,-942.383,0.000
1741704886.413,-1000.000,-60.547,-28.320,-1000.000,0.000
1741704886.417,36.621,-21.973,-22.949,367.188,0.000
1741704886.421,999.512,9.766,-28.809,999.512,0.000
1741704886.425,195.312,-28.320,-46.387,-38.574,0.000
1741704886.429,-1000.000,-86.914,-46.875,-1000.000,0.000
1741704886.433,-550.781,-65.430,-29.297,-312.012,0.000
1741704886.437,999.512,-8.789,-22.461,999.512,0.000
1741704886.441,330.078,-21.973,-29.297,230.957,0.000
1741704886.445,-1000.000,-53.223,-32.227,-1000.000,0.000
1741704886.449,-395.020,-29.297,-29.785,-285.156,0.000
1741704886.452,999.512,7.324,-29.297,999.512,0.000
1741704886.456,834.961,0.977,-36.133,560.059,0.000
1741704886.460,-650.879,-56.641,-44.922,-1000.000,0.000
1741704886.464,-1000.000,-69.824,-39.062,-768.555,0.000
1741704886.468,365.723,-14.648,-43.457,814.941,0.000
1741704886.472,999.512,6.836,-56.641,929.688,0.000
1741704886.476,-160.645,-50.293,-62.500,-538.574,0.000
1741704886.480,-1000.000,-84.473,-54.199,-1000.000,0.000
1741704886.484,-165.527,-47.852,-35.645,127.441,0.000
1741704886.487,999.512,-18.555,-35.645,999.512,0.000
1741704886.491,215.820,-52.734,-49.805,-19.531,0.000
1741704886.495,-1000.000,-82.031,-44.922,-1000.000,0.000
1741704886.499,-366.699,-45.410,-29.785,-234.375,0.000
1741704886.503,999.512,0.000,-31.250,999.512,0.000
1741704886.507,327.148,-32.715,-41.016,215.820,0.000
1741704886.511,-1000.000,-75.195,-41.016,-1000.000,0.000
1741704886.515,-314.453,-36.133,-30.762,-264.160,0.000
1741704886.519,999.512,-1.465,-30.762,999.512,0.000
1741704886.523,717.773,-33.691,-42.480,478.516,0.000
1741704886.527,-737.305,-75.684,-43.945,-1000.000,0.000
1741704886.530,-1000.000,-80.078,-36.621,-859.863,0.000
1741704886.534,301.758,-30.273,-26.855,749.512,0.000
1741704886.538,999.512,-20.020,-30.273,794.922,0.000
1741704886.542,-356.445,-68.359,-44.434,-704.590,0.000
1741704886.546,-1000.000,-79.102,-39.062,-1000.000,0.000
1741704886.550,-219.238,-35.645,-26.367,-92.773,0.000
1741704886.554,999.512,-6.348,-30.273,999.512,0.000
1741704886.558,232.422,-41.016,-38.086,120.117,0.000
1741704886.562,-1000.000,-59.082,-34.668,-1000.000,0.000
1741704886.566,-277.832,-35.645,-31.250,-213.379,0.000
1741704886.569,999.512,-11.719,-28.809,999.512,0.000
1741704886.573,541.016,-25.879,-38.574,350.586,0.000
1741704886.577,-1000.000,-69.336,-46.875,-1000.000,0.000
1741704886.581,-807.129,-62.500,-30.762,-516.113,0.000
1741704886.585,695.312,-19.043,-22.461,996.582,0.000
1741704886.589,999.512,-2.930,-35.156,869.141,0.000
1741704886.593,-123.535,-43.945,-47.852,-567.383,0.000
1741704886.597,-1000.000,-81.543,-45.410,-1000.000,0.000
1741704886.601,-91.309,-42.480,-33.691,260.742,0.000
1741704886.605,999.512,-15.137,-36.133,999.512,0.000
1741704886.609,92.285,-47.363,-47.852,-243.164,0.000
1741704886.612,-1000.000,-71.289,-49.805,-1000.000,0.000
1741704886.616,-247.070,-37.109,-41.992,-135.254,0.000
1741704886.620,999.512,-3.906,-38.086,999.512,0.000
1741704886.624,219.727,-55.176,-53.223,42.480,0.000
1741704886.628,-1000.000,-89.844,-55.176,-1000.000,0.000
1741704886.632,-312.012,-50.293,-41.504,-223.633,0.000
1741704886.636,999.512,-12.695,-35.156,999.512,0.000
1741704886.640,604.004,-29.297,-45.410,377.441,0.000
1741704886.644,-977.539,-74.219,-52.734,-1000.000,0.000
1741704886.648,-841.309,-63.477,-35.645,-536.133,0.000
1741704886.652,637.207,-18.555,-26.855,939.453,0.000
1741704886.655,999.512,-6.836,-33.691,993.652,0.000
1741704886.659,36.133,-49.316,-41.504,-374.023,0.000
1741704886.663,-1000.000,-85.449,-39.062,-1000.000,0.000
1741704886.667,-151.855,-45.410,-27.832,243.652,0.000
1741704886.671,999.512,-3.418,-32.715,999.512,0.000
1741704886.675,178.711,-42.480,-41.016,-76.660,0.000
1741704886.679,-1000.000,-83.008,-36.621,-1000.000,0.000
1741704886.683,-263.672,-46.387,-28.320,-179.688,0.000
1741704886.687,999.512,-13.184,-29.785,999.512,0.000
1741704886.691,315.918,-30.762,-40.039,209.961,0.000
1741704886.695,-1000.000,-57.129,-31.250,-1000.000,0.000
1741704886.699,-419.434,-39.551,-17.090,-281.738,0.000
1741704886.702,999.512,0.000,-20.508,999.512,0.000
1741704886.706,558.594,-23.438,-33.203,366.211,0.000
1741704886.710,-1000.000,-77.148,-40.039,-1000.000,0.000
1741704886.714,-916.016,-61.523,-36.621,-645.508,0.000
1741704886.718,543.945,-7.812,-28.809,884.766,0.000
1741704886.722,999.512,-0.488,-33.203,927.734,0.000
1741704886.726,-90.820,-39.551,-39.551,-510.254,0.000
1741704886.730,-1000.000,-63.965,-32.715,-1000.000,0.000
1741704886.734,-198.730,-41.504,-27.832,125.000,0.000
1741704886.738,999.512,-13.184,-35.156,999.512,0.000
1741704886.741,225.586,-39.062,-51.270,102.539,0.000
1741704886.745,-1000.000,-72.266,-47.363,-1000.000,0.000
1741704886.749,-270.508,-25.879,-30.273,-164.062,0.000
1741704886.753,999.512,17.578,-34.668,999.512,0.000
1741704886.757,404.297,-28.809,-51.270,242.188,0.000
1741704886.761,-1000.000,-76.660,-50.293,-1000.000,0.000
1741704886.765,-530.273,-53.223,-36.133,-340.332,0.000
1741704886.769,999.512,-10.742,-35.156,999.512,0.000
1741704886.773,810.059,-26.367,-48.828,522.949,0.000
1741704886.777,-729.492,-62.988,-49.316,-1000.000,0.000
1741704886.781,-1000.000,-62.500,-43.457,-725.098,0.000
1741704886.784,417.969,-24.414,-41.016,838.379,0.000
1741704886.788,999.512,-18.555,-48.340,957.031,0.000
1741704886.792,-156.250,-68.359,-57.617,-526.855,0.000
1741704886.796,-1000.000,-71.289,-49.316,-1000.000,0.000
1741704886.800,-79.102,-30.762,-44.434,281.250,0.000
1741704886.804,999.512,-18.555,-48.340,999.512,0.000
1741704886.808,161.133,-60.059,-60.059,-93.262,0.000
1741704886.812,-1000.000,-88.867,-59.570,-1000.000,0.000
1741704886.816,-257.324,-36.133,-44.922,-166.504,0.000
1741704886.819,999.512,-6.836,-41.504,999.512,0.000
1741704886.824,226.074,-56.152,-51.270,191.406,0.000
1741704886.827,-1000.000,-85.449,-46.875,-1000.000,0.000
1741704886.831,-806.641,-56.152,-30.762,-543.457,0.000
1741704886.835,750.977,-1.465,-22.461,999.512,0.000
1741704886.839,859.375,-7.812,-33.691,570.312,0.000
1741704886.843,-760.742,-61.035,-42.480,-1000.000,0.000
1741704886.847,-1000.000,-52.246,-28.809,-767.090,0.000
1741704886.851,347.168,-12.207,-14.648,738.281,0.000
1741704886.855,999.512,-3.906,-20.020,999.512,0.000
1741704886.859,91.309,-37.598,-27.832,-268.555,0.000
1741704886.862,-1000.000,-68.848,-21.973,-1000.000,0.000
1741704886.866,-233.887,-41.016,-10.742,17.090,0.000
1741704886.870,999.512,-10.742,-14.160,999.512,0.000
1741704886.874,229.980,-53.223,-27.344,113.281,0.000
1741704886.878,-1000.000,-86.914,-27.344,-1000.000,0.000
1741704886.882,-333.496,-41.016,-17.578,-250.488,0.000
1741704886.886,999.512,10.254,-16.113,999.512,0.000
1741704886.890,999.512,9.766,-32.715,661.621,0.000
1741704886.894,-543.945,-47.852,-42.480,-941.895,0.000
1741704886.898,-682.129,-55.664,-23.926,-461.426,0.000
1741704886.901,986.328,-8.789,-15.137,999.512,0.000
1741704886.905,963.867,-25.391,-30.273,658.203,0.000
1741704886.909,-444.824,-71.777,-42.969,-847.168,0.000
1741704886.913,-1000.000,-83.984,-39.551,-1000.000,0.000
1741704886.917,65.918,-29.785,-25.879,466.797,0.000
1741704886.921,999.512,-5.371,-28.809,999.512,0.000
1741704886.925,21.484,-54.688,-37.109,-309.082,0.000
1741704886.929,-1000.000,-87.402,-35.645,-1000.000,0.000
1741704886.933,-250.000,-48.340,-36.621,-128.906,0.000
1741704886.937,999.512,0.488,-37.598,999.512,0.000
1741704886.940,374.512,-25.879,-41.016,222.656,0.000
1741704886.944,-1000.000,-74.219,-39.062,-1000.000,0.000
1741704886.948,-481.934,-56.641,-36.133,-310.059,0.000
1741704886.952,999.512,-23.926,-33.691,999.512,0.000
1741704886.956,805.176,-31.738,-40.039,509.277,0.000
1741704886.960,-823.242,-72.266,-41.016,-1000.000,0.000
1741704886.964,-814.941,-59.570,-19.043,-535.645,0.000
1741704886.968,839.355,-5.371,-18.066,999.512,0.000
1741704886.972,957.031,-17.090,-41.992,663.086,0.000
1741704886.976,-482.422,-73.730,-53.223,-824.219,0.000
1741704886.980,-1000.000,-90.332,-41.504,-1000.000,0.000
1741704886.984,-78.613,-27.344,-26.855,210.449,0.000
1741704886.987,999.512,12.207,-34.180,999.512,0.000
1741704886.991,186.523,-46.875,-53.223,-65.430,0.000
1741704886.995,-1000.000,-87.891,-54.199,-1000.000,0.000
1741704886.999,-262.207,-38.574,-43.457,-159.180,0.000
1741704887.003,999.512,5.371,-41.016,999.512,0.000
1741704887.007,262.207,-30.273,-47.852,212.891,0.000
1741704887.011,-1000.000,-72.266,-41.016,-1000.000,0.000
1741704887.015,-395.996,-32.715,-33.691,-284.180,0.000
1741704887.019,972.656,5.859,-36.133,999.512,0.000
1741704887.023,999.512,-4.883,-41.016,783.691,0.000
1741704887.027,-250.488,-50.293,-43.945,-760.742,0.000
1741704887.030,-1000.000,-63.477,-27.832,-821.777,0.000
1741704887.034,437.012,-14.648,-23.438,890.137,0.000
1741704887.038,999.512,-25.391,-40.527,723.633,0.000
1741704887.042,-430.176,-78.613,-53.223,-768.066,0.000
1741704887.046,-1000.000,-88.867,-54.688,-1000.000,0.000
1741704887.050,-218.750,-41.504,-40.527,-74.219,0.000
1741704887.054,999.512,-2.441,-39.551,999.512,0.000
1741704887.058,231.934,-41.016,-53.711,77.637,0.000
1741704887.062,-1000.000,-79.590,-48.828,-1000.000,0.000
1741704887.066,-263.672,-41.016,-33.691,-187.012,0.000
1741704887.070,999.512,5.371,-30.273,999.512,0.000
1741704887.073,270.996,-31.250,-45.410,206.543,0.000
1741704887.077,-1000.000,-76.660,-53.711,-1000.000,0.000
1741704887.081,-416.016,-41.504,-41.992,-292.480,0.000
1741704887.085,994.141,10.742,-38.574,999.512,0.000
1741704887.089,999.512,6.836,-52.246,730.957,0.000
1741704887.093,-375.000,-53.711,-65.918,-810.059,0.000
1741704887.097,-1000.000,-68.848,-57.617,-882.812,0.000
1741704887.101,313.477,-8.301,-46.387,729.980,0.000
1741704887.105,999.512,7.324,-57.129,958.984,0.000
1741704887.109,-123.535,-43.457,-67.871,-495.117,0.000
1741704887.113,-1000.000,-60.059,-60.547,-1000.000,0.000
1741704887.116,-217.285,-6.836,-50.781,-4.395,0.000
1741704887.120,999.512,18.555,-61.035,999.512,0.000
1741704887.124,229.492,-20.508,-72.754,142.090,0.000
1741704887.128,-1000.000,-48.828,-65.430,-1000.000,0.000
1741704887.132,-273.438,-23.926,-58.594,-226.562,0.000
1741704887.136,999.512,4.395,-56.641,999.512,0.000
1741704887.140,327.148,-27.832,-67.871,238.770,0.000
1741704887.144,-1000.000,-67.383,-68.359,-1000.000,0.000
1741704887.148,-930.664,-63.965,-60.547,-633.301,0.000
1741704887.152,519.043,-17.090,-53.711,916.992,0.000
1741704887.156,999.512,-0.977,-51.758,794.434,0.000
1741704887.159,-469.727,-56.641,-51.758,-876.953,0.000
1741704887.163,-1000.000,-62.012,-49.316,-742.676,0.000
1741704887.167,467.773,-0.488,-45.898,811.035,0.000
1741704887.171,999.512,14.160,-46.875,999.512,0.000
1741704887.175,53.711,-41.016,-51.758,-213.379,0.000
1741704887.179,-1000.000,-77.148,-51.270,-1000.000,0.000
1741704887.183,-261.230,-28.809,-41.016,-107.422,0.000
1741704887.187,999.512,5.859,-42.480,999.512,0.000
1741704887.191,458.984,-30.762,-62.500,272.949,0.000
1741704887.194,-1000.000,-66.895,-61.523,-1000.000,0.000
1741704887.198,-382.324,-45.410,-40.527,-273.438,0.000
1741704887.202,999.512,-1.953,-30.762,999.512,0.000
1741704887.206,641.602,-13.672,-41.992,418.457,0.000
1741704887.210,-852.539,-59.570,-50.293,-1000.000,0.000
1741704887.214,-1000.000,-63.477,-41.016,-738.770,0.000
1741704887.218,366.699,-9.277,-31.738,848.145,0.000
1741704887.222,999.512,2.930,-41.504,819.336,0.000
1741704887.226,-276.367,-65.430,-58.105,-645.996,0.000
1741704887.230,-1000.000,-97.656,-61.035,-1000.000,0.000
1741704887.233,-222.168,-44.922,-55.664,-91.309,0.000
1741704887.237,999.512,4.395,-52.734,999.512,0.000
1741704887.241,230.957,-36.621,-54.688,63.965,0.000
1741704887.245,-1000.000,-87.402,-53.223,-1000.000,0.000
1741704887.249,-249.023,-44.922,-45.410,-51.758,0.000
1741704887.253,999.512,-11.230,-40.527,999.512,0.000
1741704887.257,247.070,-50.781,-44.434,192.871,0.000
1741704887.261,-1000.000,-85.938,-40.527,-1000.000,0.000
1741704887.265,-492.676,-50.293,-25.391,-326.660,0.000
1741704887.269,999.512,10.742,-23.926,999.512,0.000
1741704887.273,867.676,2.930,-41.504,571.777,0.000
1741704887.276,-607.910,-57.129,-52.246,-976.562,0.000
1741704887.280,-1000.000,-72.754,-41.992,-840.820,0.000
1741704887.284,208.496,-22.949,-37.109,654.297,0.000
1741704887.288,999.512,5.859,-46.387,999.512,0.000
1741704887.292,85.449,-37.109,-59.570,-290.039,0.000
1741704887.296,-1000.000,-62.500,-52.734,-1000.000,0.000
1741704887.300,-51.758,-21.973,-41.992,341.797,0.000
1741704887.304,999.512,-7.324,-44.922,999.512,0.000
1741704887.308,185.547,-55.176,-44.922,-38.574,0.000
1741704887.312,-1000.000,-72.754,-36.621,-1000.000,0.000
1741704887.315,-252.930,-20.020,-23.926,-51.270,0.000
1741704887.319,999.512,2.441,-29.785,999.512,0.000
1741704887.323,317.383,-37.598,-45.410,215.332,0.000
1741704887.327,-1000.000,-75.684,-40.039,-1000.000,0.000
1741704887.331,-855.957,-62.988,-32.227,-533.691,0.000
1741704887.335,672.852,-25.391,-33.203,999.512,0.000
1741704887.339,960.938,-16.602,-48.340,666.992,0.000
1741704887.343,-604.980,-58.594,-53.711,-949.219,0.000
1741704887.347,-1000.000,-66.895,-33.203,-847.168,0.000
1741704887.351,255.859,-16.602,-18.555,672.852,0.000
1741704887.355,999.512,7.324,-20.996,999.512,0.000
1741704887.358,96.680,-35.156,-37.109,-231.445,0.000
1741704887.362,-1000.000,-77.637,-37.109,-1000.000,0.000
1741704887.366,-255.371,-47.852,-26.367,-121.582,0.000
1741704887.370,999.512,-7.812,-32.715,999.512,0.000
1741704887.374,237.793,-48.340,-38.574,94.238,0.000
1741704887.378,-1000.000,-94.727,-34.180,-1000.000,0.000
1741704887.382,-489.258,-62.500,-18.066,-284.668,0.000
1741704887.386,999.512,-21.973,-13.672,999.512,0.000
1741704887.390,392.578,-40.527,-30.273,252.930,0.000
1741704887.394,-1000.000,-79.590,-36.621,-1000.000,0.000
1741704887.398,-670.410,-62.988,-16.602,-446.777,0.000
1741704887.402,837.891,-20.508,-4.883,999.512,0.000
1741704887.405,999.512,-23.438,-12.695,708.984,0.000
1741704887.409,-483.887,-62.988,-11.230,-916.992,0.000
1741704887.413,-976.074,-68.848,-6.836,-694.824,0.000
1741704887.417,587.891,-33.691,-7.324,908.691,0.000
1741704887.421,999.512,-32.227,-21.973,937.988,0.000
1741704887.425,-117.676,-75.684,-42.480,-455.078,0.000
1741704887.429,-1000.000,-97.168,-36.621,-1000.000,0.000
1741704887.433,-230.957,-46.875,-24.902,-66.406,0.000
1741704887.437,999.512,-2.930,-31.738,999.512,0.000
1741704887.441,238.770,-39.551,-47.852,152.832,0.000
1741704887.445,-1000.000,-80.566,-44.922,-1000.000,0.000
1741704887.448,-416.016,-46.875,-28.809,-279.297,0.000
1741704887.452,999.512,12.695,-17.090,999.512,0.000
1741704887.456,379.395,-20.508,-29.297,238.770,0.000
1741704887.460,-988.281,-79.590,-49.805,-1000.000,0.000
1741704887.464,-1000.000,-75.684,-39.551,-989.258,0.000
1741704887.468,19.043,-25.879,-29.297,456.543,0.000
1741704887.472,999.512,0.488,-46.387,849.609,0.000
1741704887.476,-283.203,-52.246,-54.688,-731.445,0.000
1741704887.480,-1000.000,-77.637,-40.527,-1000.000,0.000
1741704887.484,-94.238,-30.762,-32.715,180.176,0.000
1741704887.488,999.512,0.000,-39.062,999.512,0.000
1741704887.491,213.379,-39.551,-44.434,39.551,0.000
1741704887.495,-1000.000,-83.496,-33.203,-1000.000,0.000
1741704887.499,-247.070,-37.598,-20.020,-48.828,0.000
1741704887.503,999.512,1.465,-20.996,999.512,0.000
1741704887.507,237.793,-60.547,-30.762,181.641,0.000
1741704887.511,-1000.000,-104.004,-37.109,-1000.000,0.000
1741704887.515,-626.465,-78.613,-25.879,-399.902,0.000
1741704887.519,999.512,-33.203,-16.113,999.512,0.000
1741704887.523,523.438,-48.828,-23.438,332.520,0.000
1741704887.527,-1000.000,-88.867,-33.203,-1000.000,0.000
1741704887.530,-961.914,-72.754,-29.297,-676.270,0.000
1741704887.534,424.805,-26.367,-26.855,807.617,0.000
1741704887.538,999.512,-5.371,-32.715,999.512,0.000
1741704887.542,-95.215,-51.758,-41.016,-483.887,0.000
1741704887.546,-1000.000,-64.453,-40.527,-989.258,0.000
1741704887.550,108.887,-13.672,-34.668,484.375,0.000
1741704887.554,999.512,-2.441,-41.016,999.512,0.000
1741704887.558,190.430,-38.086,-53.711,116.699,0.000
1741704887.562,-1000.000,-77.637,-48.828,-1000.000,0.000
1741704887.565,-273.438,-45.410,-35.156,-216.309,0.000
1741704887.569,999.512,-0.488,-38.574,999.512,0.000
1741704887.573,346.191,-27.832,-48.828,230.469,0.000
1741704887.577,-1000.000,-73.730,-48.828,-1000.000,0.000
1741704887.581,-674.316,-53.711,-34.180,-432.129,0.000
1741704887.585,931.152,-5.859,-27.344,999.512,0.000
1741704887.589,802.246,-16.113,-42.480,526.367,0.000
1741704887.593,-716.309,-55.664,-47.363,-1000.000,0.000
1741704887.597,-1000.000,-57.617,-29.785,-935.547,0.000
1741704887.601,111.816,-26.855,-18.555,545.898,0.000
1741704887.605,999.512,-6.836,-28.320,999.512,0.000
1741704887.608,-28.809,-42.969,-44.922,-421.387,0.000
1741704887.612,-1000.000,-65.430,-40.527,-1000.000,0.000
1741704887.616,-143.555,-19.043,-23.438,152.832,0.000
1741704887.620,999.512,5.371,-21.973,999.512,0.000
1741704887.624,259.277,-28.809,-35.156,158.691,0.000
1741704887.628,-1000.000,-64.941,-35.156,-1000.000,0.000
1741704887.632,-383.789,-53.711,-19.531,-261.719,0.000
1741704887.636,999.512,-21.484,-18.555,999.512,0.000
1741704887.640,606.934,-28.320,-31.250,375.000,0.000
1741704887.644,-965.332,-74.707,-28.320,-1000.000,0.000
1741704887.647,-922.363,-85.938,-16.602,-571.777,0.000
1741704887.651,734.863,-40.039,-15.137,999.512,0.000
1741704887.655,794.434,-46.387,-20.996,526.367,0.000
1741704887.659,-849.121,-93.750,-19.531,-1000.000,0.000
1741704887.663,-1000.000,-83.496,-4.395,-737.793,0.000
1741704887.667,408.203,-40.039,-3.906,792.969,0.000
1741704887.671,999.512,-29.297,-13.672,999.512,0.000
1741704887.675,-77.637,-75.195,-16.113,-375.488,0.000
1741704887.679,-1000.000,-94.238,-18.555,-1000.000,0.000
1741704887.683,-227.539,-43.945,-15.625,-31.738,0.000
1741704887.687,999.512,4.395,-12.695,999.512,0.000
1741704887.691,331.055,-33.691,-21.973,207.031,0.000
1741704887.694,-1000.000,-95.215,-22.949,-1000.000,0.000
1741704887.698,-323.730,-56.152,-6.836,-256.348,0.000
1741704887.702,999.512,-12.207,-2.930,999.512,0.000
1741704887.706,538.574,-41.992,-20.020,343.262,0.000
1741704887.710,-1000.000,-85.938,-36.621,-1000.000,0.000
1741704887.714,-802.246,-70.312,-33.691,-502.441,0.000
1741704887.718,834.961,-22.461,-21.973,999.512,0.000
1741704887.722,853.027,-33.203,-31.250,559.570,0.000
1741704887.726,-633.789,-87.402,-47.852,-918.945,0.000
1741704887.730,-1000.000,-92.773,-33.203,-1000.000,0.000
1741704887.734,-85.938,-31.250,-19.043,225.098,0.000
1741704887.737,999.512,0.977,-35.156,999.512,0.000
1741704887.741,75.684,-61.035,-49.805,-231.934,0.000
1741704887.745,-1000.000,-95.703,-40.039,-1000.000,0.000
1741704887.749,-231.445,-38.086,-25.879,-44.922,0.000
1741704887.753,999.512,13.184,-26.367,999.512,0.000
1741704887.757,256.836,-38.086,-39.551,195.312,0.000
1741704887.761,-1000.000,-93.262,-39.551,-1000.000,0.000
1741704887.765,-538.574,-61.035,-22.461,-353.027,0.000
1741704887.769,948.730,-9.766,-16.113,999.512,0.000
1741704887.773,998.047,-7.812,-35.645,666.016,0.000
1741704887.777,-594.727,-53.223,-49.316,-965.820,0.000
1741704887.781,-818.848,-53.223,-25.391,-556.641,0.000
1741704887.784,881.836,-6.348,-16.602,999.512,0.000
1741704887.788,933.594,-18.555,-39.551,654.297,0.000
1741704887.792,-567.871,-67.383,-50.293,-903.809,0.000
1741704887.796,-1000.000,-66.406,-35.156,-952.637,0.000
1741704887.800,142.578,-16.113,-25.879,525.391,0.000
1741704887.804,999.512,-9.277,-38.574,999.512,0.000
1741704887.808,86.914,-50.781,-44.434,-197.754,0.000
1741704887.812,-1000.000,-70.801,-40.527,-1000.000,0.000
1741704887.816,-258.789,-34.668,-32.227,-182.617,0.000
1741704887.820,999.512,0.488,-25.879,999.512,0.000
1741704887.824,341.797,-29.297,-40.527,221.191,0.000
1741704887.827,-1000.000,-61.523,-51.758,-1000.000,0.000
1741704887.831,-579.102,-38.574,-25.879,-377.441,0.000
1741704887.835,999.512,0.000,-17.578,999.512,0.000
1741704887.839,750.488,-19.531,-47.363,474.121,0.000
1741704887.843,-703.125,-68.359,-57.129,-954.590,0.000
1741704887.847,-1000.000,-76.660,-42.480,-1000.000,0.000
1741704887.851,-100.098,-31.738,-40.527,259.277,0.000
1741704887.855,999.512,-9.277,-45.410,945.312,0.000
1741704887.859,-119.629,-49.316,-45.898,-541.992,0.000
1741704887.863,-1000.000,-76.172,-41.016,-1000.000,0.000
1741704887.866,-213.867,-32.715,-35.645,-50.293,0.000
1741704887.870,999.512,4.883,-40.527,999.512,0.000
1741704887.874,270.996,-26.855,-52.734,188.477,0.000
1741704887.878,-1000.000,-62.500,-53.711,-1000.000,0.000
1741704887.882,-326.660,-51.270,-39.062,-256.836,0.000
1741704887.886,999.512,-4.883,-37.109,999.512,0.000
1741704887.890,415.039,-23.926,-52.734,273.438,0.000
1741704887.894,-1000.000,-78.125,-56.152,-1000.000,0.000
1741704887.898,-1000.000,-67.871,-42.480,-783.203,0.000
1741704887.902,192.871,-29.785,-41.992,666.504,0.000
1741704887.906,999.512,-7.812,-48.828,999.512,0.000
1741704887.909,-32.715,-42.480,-55.176,-482.910,0.000
1741704887.913,-1000.000,-72.754,-47.852,-966.797,0.000
1741704887.917,154.785,-26.855,-31.738,543.457,0.000
1741704887.921,999.512,2.930,-40.039,999.512,0.000
1741704887.925,180.176,-32.227,-49.805,-34.668,0.000
1741704887.929,-1000.000,-67.383,-48.340,-1000.000,0.000
1741704887.933,-253.906,-41.016,-41.504,-25.879,0.000
1741704887.937,999.512,-17.578,-46.875,999.512,0.000
1741704887.941,233.398,-51.758,-57.129,152.344,0.000
1741704887.944,-1000.000,-82.520,-49.316,-1000.000,0.000
1741704887.949,-476.074,-59.570,-40.527,-300.293,0.000
1741704887.952,999.512,-15.625,-40.039,999.512,0.000
1741704887.956,419.922,-33.691,-41.016,269.043,0.000
1741704887.960,-1000.000,-78.613,-32.715,-1000.000,0.000
1741704887.964,-933.105,-63.477,-24.414,-673.340,0.000
1741704887.968,442.383,-4.883,-31.738,807.129,0.000
1741704887.972,999.512,9.766,-40.527,999.512,0.000
1741704887.976,-82.520,-54.199,-42.969,-513.672,0.000
1741704887.980,-1000.000,-78.125,-35.645,-969.727,0.000
1741704887.984,168.457,-24.902,-25.879,586.426,0.000
1741704887.987,999.512,-12.207,-38.086,999.512,0.000
1741704887.991,63.965,-69.824,-59.570,-237.793,0.000
1741704887.995,-1000.000,-106.445,-55.664,-1000.000,0.000
1741704887.999,-250.977,-58.105,-46.875,-168.945,0.000
1741704888.003,999.512,-9.277,-45.898,999.512,0.000
1741704888.007,228.516,-49.316,-47.852,178.711,0.000
1741704888.011,-1000.000,-87.891,-41.016,-1000.000,0.000
1741704888.015,-265.625,-31.738,-29.785,-247.070,0.000
1741704888.019,999.512,0.000,-31.250,999.512,0.000
1741704888.023,683.105,-37.109,-41.504,440.430,0.000
1741704888.026,-841.797,-76.172,-48.828,-1000.000,0.000
1741704888.030,-980.469,-72.266,-43.945,-686.523,0.000
1741704888.034,472.168,-16.113,-35.645,810.547,0.000
1741704888.038,999.512,7.812,-47.363,999.512,0.000
1741704888.042,78.125,-35.645,-55.176,-257.324,0.000
1741704888.046,-1000.000,-73.242,-41.992,-1000.000,0.000
1741704888.050,-241.699,-35.645,-36.133,15.625,0.000
1741704888.054,999.512,0.488,-37.598,999.512,0.000
1741704888.058,178.711,-32.715,-35.156,-126.953,0.000
1741704888.062,-1000.000,-50.293,-30.273,-1000.000,0.000
1741704888.066,-209.961,-18.555,-31.250,59.082,0.000
1741704888.069,999.512,-3.906,-41.504,999.512,0.000
1741704888.073,329.590,-38.574,-44.922,199.707,0.000
1741704888.077,-1000.000,-78.613,-40.527,-1000.000,0.000
1741704888.081,-558.594,-55.664,-31.738,-348.145,0.000
1741704888.085,999.512,-4.883,-24.414,999.512,0.000
1741704888.089,562.012,-25.879,-35.156,362.793,0.000
1741704888.093,-917.969,-70.312,-45.410,-1000.000,0.000
1741704888.097,-1000.000,-64.941,-35.645,-959.473,0.000
1741704888.101,11.719,-21.484,-29.297,362.793,0.000
1741704888.105,999.512,12.207,-42.480,999.512,0.000
1741704888.109,201.660,-18.066,-52.246,24.902,0.000
1741704888.112,-1000.000,-56.641,-39.551,-1000.000,0.000
1741704888.116,-266.113,-43.945,-30.762,-160.156,0.000
1741704888.120,999.512,-9.277,-45.898,999.512,0.000
1741704888.124,228.027,-42.480,-57.617,91.797,0.000
1741704888.128,-1000.000,-85.449,-50.781,-1000.000,0.000
1741704888.132,-310.547,-49.805,-32.715,-232.422,0.000
1741704888.136,999.512,-7.812,-26.367,999.512,0.000
1741704888.140,335.938,-31.250,-40.039,226.074,0.000
1741704888.144,-1000.000,-64.941,-54.688,-1000.000,0.000
1741704888.148,-624.512,-46.387,-41.504,-416.504,0.000
1741704888.152,909.180,7.324,-34.180,999.512,0.000
1741704888.155,969.238,-1.465,-48.828,673.340,0.000
1741704888.159,-602.539,-72.266,-53.711,-963.867,0.000
1741704888.163,-962.402,-70.801,-35.156,-643.555,0.000
1741704888.167,539.062,-18.555,-26.367,860.352,0.000
1741704888.171,999.512,-8.301,-33.203,999.512,0.000
1741704888.175,130.371,-51.270,-38.086,-136.230,0.000
1741704888.179,-1000.000,-85.449,-34.180,-1000.000,0.000
1741704888.183,-167.480,-26.855,-18.066,109.375,0.000
1741704888.187,999.512,18.555,-19.531,999.512,0.000
1741704888.191,235.352,-40.039,-39.551,169.434,0.000
1741704888.195,-1000.000,-83.496,-38.086,-1000.000,0.000
1741704888.198,-281.738,-45.898,-29.785,-230.469,0.000
1741704888.202,999.512,-2.441,-34.180,999.512,0.000
1741704888.206,629.883,-20.996,-40.039,411.621,0.000
1741704888.210,-979.980,-77.148,-48.340,-1000.000,0.000
1741704888.214,-738.281,-74.219,-40.527,-479.492,0.000
1741704888.218,775.879,-20.508,-32.227,991.211,0.000
1741704888.222,999.512,-15.625,-39.062,986.328,0.000
1741704888.226,-74.707,-62.012,-43.457,-476.074,0.000
1741704888.230,-1000.000,-78.613,-33.203,-944.824,0.000
1741704888.234,175.781,-27.832,-25.391,627.441,0.000
1741704888.238,999.512,-13.184,-36.621,999.512,0.000
1741704888.241,37.109,-53.711,-42.969,-254.395,0.000
1741704888.245,-1000.000,-73.730,-32.227,-1000.000,0.000
1741704888.249,-247.559,-24.902,-20.020,-74.707,0.000
1741704888.253,999.512,17.090,-21.973,999.512,0.000
1741704888.257,231.445,-38.086,-43.457,149.902,0.000
1741704888.261,-1000.000,-86.426,-45.410,-1000.000,0.000
1741704888.265,-309.570,-27.832,-30.762,-254.883,0.000
1741704888.269,999.512,17.578,-38.574,999.512,0.000
1741704888.273,540.527,-20.996,-53.711,362.793,0.000
1741704888.277,-917.969,-68.848,-53.711,-1000.000,0.000
1741704888.281,-1000.000,-71.777,-41.504,-833.008,0.000
1741704888.284,300.781,-16.113,-29.297,752.441,0.000
1741704888.288,999.512,0.000,-32.227,784.180,0.000
1741704888.292,-424.805,-54.688,-42.969,-809.570,0.000
1741704888.296,-1000.000,-56.641,-34.668,-1000.000,0.000
1741704888.300,15.625,-9.766,-27.344,391.113,0.000
1741704888.304,999.512,-0.488,-39.062,999.512,0.000
1741704888.308,-65.430,-44.434,-45.898,-380.859,0.000
1741704888.312,-1000.000,-68.848,-39.062,-1000.000,0.000
1741704888.316,-453.613,-34.668,-27.832,-270.996,0.000
1741704888.319,999.512,6.348,-24.902,999.512,0.000
1741704888.323,271.973,-19.531,-32.227,217.773,0.000
1741704888.327,-1000.000,-66.406,-34.668,-1000.000,0.000
1741704888.331,-770.996,-38.574,-19.531,-495.605,0.000
1741704888.335,851.074,13.184,-13.184,999.512,0.000
1741704888.339,613.770,-11.719,-32.227,373.047,0.000
1741704888.343,-894.531,-50.293,-45.898,-1000.000,0.000
1741704888.347,-1000.000,-37.598,-39.062,-1000.000,0.000
1741704888.351,19.043,-13.184,-32.227,411.621,0.000
1741704888.355,813.965,-10.742,-47.363,571.289,0.000
1741704888.358,-648.438,-57.617,-62.012,-923.340,0.000
1741704888.362,-1000.000,-66.406,-50.293,-1000.000,0.000
1741704888.366,-308.105,-36.133,-30.762,-174.316,0.000
1741704888.370,999.512,-8.301,-35.645,999.512,0.000
1741704888.374,163.086,-38.086,-50.293,-174.316,0.000
1741704888.378,-1000.000,-59.082,-41.504,-1000.000,0.000
1741704888.382,-255.859,-20.020,-22.461,-187.988,0.000
1741704888.386,999.512,5.859,-14.648,999.512,0.000
1741704888.390,399.414,-17.578,-26.367,252.930,0.000
1741704888.394,-1000.000,-74.219,-45.898,-1000.000,0.000
1741704888.398,-1000.000,-80.566,-41.504,-780.273,0.000
1741704888.401,450.195,-31.738,-37.109,833.496,0.000
1741704888.405,793.945,-20.996,-48.340,478.516,0.000
1741704888.409,-762.695,-70.312,-55.176,-1000.000,0.000
1741704888.413,-1000.000,-93.750,-58.594,-1000.000,0.000
1741704888.417,-133.301,-47.852,-56.152,190.918,0.000
1741704888.421,999.512,-13.672,-45.410,994.629,0.000
1741704888.425,-60.059,-65.918,-62.500,-466.309,0.000
1741704888.429,-1000.000,-89.355,-73.730,-1000.000,0.000
1741704888.433,-231.934,-45.898,-53.711,-61.035,0.000
1741704888.437,999.512,-3.418,-50.781,999.512,0.000
1741704888.440,528.809,-14.160,-62.988,266.113,0.000
1741704888.444,-1000.000,-71.289,-55.664,-1000.000,0.000
1741704888.448,-411.621,-60.059,-36.621,-267.090,0.000
1741704888.452,999.512,-13.184,-41.016,999.512,0.000
1741704888.456,489.258,-34.180,-55.176,299.805,0.000
1741704888.460,-1000.000,-63.965,-57.129,-1000.000,0.000
1741704888.464,-905.762,-49.316,-39.062,-597.168,0.000
1741704888.468,648.926,-5.859,-26.367,991.211,0.000
1741704888.472,979.980,-6.348,-35.645,676.758,0.000
1741704888.476,-554.688,-60.547,-41.992,-924.805,0.000
1741704888.480,-1000.000,-64.941,-32.227,-911.133,0.000
1741704888.484,169.922,-6.836,-17.090,541.992,0.000
1741704888.487,999.512,9.277,-27.344,999.512,0.000
1741704888.491,177.734,-43.457,-46.875,-42.969,0.000
1741704888.495,-1000.000,-82.031,-51.758,-1000.000,0.000
1741704888.499,-268.555,-40.039,-41.016,-160.645,0.000
1741704888.503,999.512,5.859,-31.738,999.512,0.000
1741704888.507,275.391,-30.273,-44.922,203.125,0.000
1741704888.511,-1000.000,-74.707,-45.898,-1000.000,0.000
1741704888.515,-437.988,-42.969,-28.320,-290.527,0.000
1741704888.519,999.512,3.906,-27.832,999.512,0.000
1741704888.523,773.438,-15.625,-36.621,457.520,0.000
1741704888.527,-883.789,-70.801,-38.086,-1000.000,0.000
1741704888.530,-691.895,-54.688,-25.879,-457.520,0.000
1741704888.534,992.188,-2.930,-16.602,999.512,0.000
1741704888.538,830.078,-33.203,-29.297,567.383,0.000
1741704888.542,-653.320,-90.820,-43.945,-956.543,0.000
1741704888.546,-1000.000,-86.426,-42.480,-963.867,0.000
1741704888.550,75.195,-32.227,-33.203,450.684,0.000
1741704888.554,999.512,-24.414,-45.410,999.512,0.000
1741704888.558,163.086,-63.477,-62.012,-88.379,0.000
1741704888.562,-1000.000,-86.426,-60.059,-1000.000,0.000
1741704888.566,-268.066,-56.152,-43.945,-158.691,0.000
1741704888.570,999.512,-15.137,-35.156,999.512,0.000
1741704888.573,333.496,-41.504,-39.062,215.332,0.000
1741704888.577,-1000.000,-79.590,-31.738,-1000.000,0.000
1741704888.581,-309.082,-46.387,-18.066,-259.766,0.000
1741704888.585,999.512,-8.301,-23.438,999.512,0.000
1741704888.589,841.309,-20.996,-37.109,571.289,0.000
1741704888.593,-595.703,-51.758,-37.109,-976.562,0.000
1741704888.597,-1000.000,-50.293,-25.391,-800.293,0.000
1741704888.601,290.527,-11.230,-21.484,750.000,0.000
1741704888.605,999.512,6.836,-31.738,999.512,0.000
1741704888.609,3.906,-31.250,-35.156,-383.301,0.000
1741704888.613,-1000.000,-66.895,-25.879,-1000.000,0.000
1741704888.616,-230.469,-30.762,-19.043,31.738,0.000
1741704888.620,999.512,-6.836,-27.832,999.512,0.000
1741704888.624,127.930,-40.527,-50.293,-191.406,0.000
1741704888.628,-1000.000,-66.895,-54.199,-1000.000,0.000
1741704888.632,-321.777,-38.574,-43.457,-220.215,0.000
1741704888.636,999.512,5.859,-36.133,999.512,0.000
1741704888.640,615.234,-12.695,-40.039,360.840,0.000
1741704888.644,-1000.000,-60.547,-41.992,-1000.000,0.000
1741704888.648,-713.867,-43.457,-37.109,-454.590,0.000
1741704888.652,995.605,2.930,-38.574,999.512,0.000
1741704888.655,664.551,-21.973,-46.875,436.035,0.000
1741704888.659,-958.496,-63.965,-51.270,-1000.000,0.000
1741704888.663,-947.754,-47.852,-39.551,-659.668,0.000
1741704888.667,463.867,-5.371,-31.250,789.551,0.000
1741704888.671,999.512,12.695,-35.645,999.512,0.000
1741704888.675,155.762,-22.461,-39.062,-109.863,0.000
1741704888.679,-1000.000,-69.336,-40.039,-1000.000,0.000
1741704888.683,-251.465,-34.180,-36.133,-15.625,0.000
1741704888.687,999.512,1.953,-38.086,999.512,0.000
1741704888.691,226.562,-30.762,-56.152,134.277,0.000
1741704888.694,-1000.000,-77.637,-63.477,-1000.000,0.000
1741704888.698,-312.500,-50.293,-49.805,-241.699,0.000
1741704888.702,999.512,-8.789,-38.574,999.512,0.000
1741704888.706,483.887,-38.086,-47.363,309.570,0.000
1741704888.710,-1000.000,-82.031,-53.711,-1000.000,0.000
1741704888.714,-755.859,-63.477,-46.387,-488.770,0.000
1741704888.718,771.484,-9.277,-42.480,999.512,0.000
1741704888.722,999.512,-4.395,-53.711,788.574,0.000
1741704888.726,-296.875,-57.129,-58.594,-712.891,0.000
1741704888.730,-1000.000,-75.684,-51.758,-1000.000,0.000
1741704888.733,-15.625,-40.039,-41.016,316.895,0.000
1741704888.737,999.512,-18.066,-36.133,999.512,0.000
1741704888.741,205.078,-52.246,-42.969,24.902,0.000
1741704888.745,-1000.000,-85.938,-40.039,-1000.000,0.000
1741704888.749,-268.555,-51.270,-33.691,-190.430,0.000
1741704888.753,999.512,-6.836,-32.715,999.512,0.000
1741704888.757,265.625,-33.203,-40.527,205.566,0.000
1741704888.761,-1000.000,-82.031,-45.410,-1000.000,0.000
1741704888.765,-530.762,-53.711,-36.133,-336.426,0.000
1741704888.769,999.512,-9.766,-29.785,999.512,0.000
1741704888.773,690.918,-32.227,-38.574,439.941,0.000
1741704888.776,-891.602,-70.801,-49.316,-1000.000,0.000
1741704888.780,-997.559,-65.918,-34.180,-699.707,0.000
